Data from H2O_Subt9__9__00049.txt Node

Date: Tue Nov 04 10:20:34 EST 2025
User: brett
Spectrometer: USB4F03499
Trigger mode: 4
Integration Time (sec): 3.000000E-2
Scans to average: 15
Electric dark correction enabled: true
Nonlinearity correction enabled: true
Boxcar width: 1
XAxis mode: Wavelengths
Number of Pixels in Spectrum: 3648
>>>>>Begin Spectral Data<<<<<
345.386	-4.75442
345.605	-4.75442
345.824	0.88962
346.044	-1.36119
346.263	-3.34849
346.482	-3.67908
346.701	0.46362
346.92	6.52673
347.139	7.504
347.358	1.31371
347.577	3.30361
347.796	0.37161
348.015	9.4632
348.234	3.82217
348.453	-5.63263
348.672	-11.24018
348.891	-13.39106
349.11	-2.9907
349.329	2.74631
349.548	10.14351
349.767	19.23883
349.986	24.15832
350.205	23.50959
350.424	18.8811
350.643	17.12433
350.862	13.57018
351.08	8.41765
351.299	12.38961
351.518	14.80163
351.737	19.29686
351.956	15.25799
352.174	19.29906
352.393	19.26917
352.612	21.41716
352.831	22.20235
353.049	26.99029
353.268	27.0234
353.487	33.63744
353.705	31.26049
353.924	29.11127
354.143	25.6223
354.361	29.69197
354.58	33.96205
354.798	35.68538
355.017	36.69646
355.236	31.93921
355.454	26.56485
355.673	26.59315
355.891	29.52403
356.11	39.68452
356.328	38.80894
356.547	41.2186
356.765	37.93144
356.984	38.22496
357.202	38.38861
357.42	41.2512
357.639	42.9712
357.857	44.23725
358.076	42.93647
358.294	47.08081
358.512	53.07271
358.731	54.24288
358.949	52.37642
359.167	48.4313
359.386	47.26279
359.604	47.57962
359.822	51.69134
360.04	53.54278
360.259	53.71181
360.477	51.82143
360.695	52.30552
360.913	51.50157
361.131	52.89764
361.35	51.85263
361.568	50.22187
361.786	46.18055
362.004	49.70799
362.222	55.40005
362.44	55.76789
362.658	51.26885
362.876	47.00586
363.094	50.68469
363.312	57.81834
363.53	56.97077
363.749	52.83269
363.967	47.36416
364.184	48.17508
364.402	51.63085
364.62	54.62573
364.838	50.56225
365.056	38.76799
365.274	29.55183
365.492	27.14269
365.71	25.74273
365.928	28.44869
366.146	25.77743
366.364	29.23363
366.581	25.39028
366.799	28.39106
367.017	30.47846
367.235	28.13335
367.453	25.68648
367.67	21.67794
367.888	19.29906
368.106	21.21159
368.323	22.73983
368.541	14.98471
368.759	18.60951
368.977	19.88157
369.194	35.88098
369.412	23.66592
369.629	19.94849
369.847	12.55099
370.065	20.59919
370.282	24.54218
370.5	29.62366
370.717	27.89433
370.935	28.64345
371.152	25.19077
371.37	25.93996
371.588	24.14946
371.805	30.60039
372.022	27.76542
372.24	32.78138
372.457	28.38099
372.675	39.30166
372.892	33.20904
373.11	36.00947
373.327	29.78537
373.544	35.45438
373.762	33.69633
373.979	29.52296
374.196	29.22884
374.414	30.89134
374.631	36.75667
374.848	36.20162
375.066	40.89053
375.283	43.55786
375.5	46.45564
375.717	43.13755
375.935	40.7919
376.152	39.71338
376.369	38.2457
376.586	39.28295
376.803	41.01495
377.02	46.74489
377.238	47.50162
377.455	47.33224
377.672	42.02757
377.889	38.89984
378.106	39.39788
378.323	40.92996
378.54	44.14885
378.757	41.66862
378.974	42.15296
379.191	42.12701
379.408	41.67249
379.625	39.02871
379.842	42.90683
380.059	47.33633
380.276	50.8608
380.493	41.63796
380.71	37.46783
380.927	37.75076
381.143	47.1006
381.36	53.04877
381.577	55.20946
381.794	51.55459
382.011	43.81167
382.228	39.89487
382.444	40.45298
382.661	45.57197
382.878	45.77507
383.095	45.34988
383.311	44.73116
383.528	48.28142
383.745	47.24377
383.962	50.53083
384.178	48.08623
384.395	50.78629
384.612	47.68879
384.828	49.08647
385.045	45.66541
385.261	46.09228
385.478	46.15831
385.695	44.07435
385.911	41.53292
386.128	44.69342
386.344	49.45122
386.561	53.74735
386.777	51.49818
386.994	55.07687
387.21	54.85236
387.427	53.03344
387.643	52.90639
387.86	53.46002
388.076	52.84428
388.292	43.75262
388.509	43.36307
388.725	36.28824
388.942	40.16953
389.158	31.24552
389.374	38.95929
389.591	37.52688
389.807	41.66267
390.023	42.29045
390.239	46.00436
390.456	42.41972
390.672	38.02498
390.888	34.17601
391.104	40.23359
391.321	44.39939
391.537	46.3903
391.753	46.22114
391.969	46.50566
392.185	47.09275
392.401	44.8582
392.618	46.65668
392.834	46.00199
393.05	47.52653
393.266	43.09261
393.482	41.59377
393.698	41.16901
393.914	44.75247
394.13	53.71041
394.346	55.33813
394.562	57.78523
394.778	52.7992
394.994	51.30623
395.21	46.57877
395.426	43.65446
395.642	46.13118
395.858	47.14293
396.073	50.39513
396.289	46.74738
396.505	39.51959
396.721	41.37966
396.937	42.87537
397.153	42.22412
397.369	40.56621
397.584	37.63641
397.8	44.40312
398.016	43.5808
398.232	48.00383
398.447	45.8663
398.663	41.15069
398.879	37.96382
399.094	41.53779
399.31	42.28348
399.526	40.45969
399.741	36.94786
399.957	43.42992
400.173	44.11524
400.388	45.48339
400.604	37.76215
400.82	35.90503
401.035	33.78859
401.251	32.68502
401.466	40.86437
401.682	45.18918
401.897	47.62963
402.113	41.66709
402.328	38.83988
402.544	38.83912
402.759	38.0561
402.974	37.10674
403.19	40.30432
403.405	40.82437
403.621	33.69099
403.836	33.72088
404.051	38.96908
404.267	48.35209
404.482	48.24851
404.697	46.06153
404.913	38.37701
405.128	33.91955
405.343	37.4724
405.559	40.66417
405.774	39.20026
405.989	35.74346
406.204	42.4512
406.42	50.19937
406.635	54.92215
406.85	49.15574
407.065	44.79217
407.28	41.60437
407.495	47.4368
407.71	45.41763
407.926	40.11102
408.141	37.17428
408.356	39.35635
408.571	40.49447
408.786	39.03404
409.001	42.65168
409.216	47.95966
409.431	47.40349
409.646	47.7631
409.861	42.90548
410.076	46.23336
410.291	41.28015
410.506	39.23687
410.721	41.0216
410.936	47.56949
411.15	53.48717
411.365	50.35713
411.58	52.63361
411.795	54.52801
412.01	54.66395
412.225	53.85649
412.439	55.87068
412.654	64.78559
412.869	64.58487
413.084	58.07696
413.299	54.50299
413.513	49.19498
413.728	52.11623
413.943	47.16314
414.157	45.7911
414.372	42.37577
414.587	45.40109
414.801	45.5315
415.016	47.1963
415.231	50.03621
415.445	45.21843
415.66	44.46937
415.874	40.59135
416.089	50.26278
416.304	48.9928
416.518	53.81667
416.733	50.00683
416.947	52.15238
417.162	40.81485
417.376	38.89032
417.59	36.64734
417.805	40.42893
418.019	40.62698
418.234	41.93407
418.448	41.47622
418.663	49.98365
418.877	52.19586
419.091	49.42604
419.306	46.16172
419.52	46.614
419.734	57.02747
419.949	53.02411
420.163	54.62214
420.377	45.67464
420.591	47.29715
420.806	36.41994
421.02	39.44912
421.234	36.65086
421.448	44.49995
421.663	48.21521
421.877	44.63839
422.091	44.53868
422.305	38.73999
422.519	41.53879
422.733	35.19088
422.947	35.35493
423.161	33.30138
423.376	43.55303
423.59	46.02816
423.804	44.69213
424.018	39.6748
424.232	39.53902
424.446	44.16402
424.66	43.75426
424.874	43.76292
425.088	40.82242
425.302	42.18482
425.515	42.10983
425.729	49.21969
425.943	49.18641
426.157	46.05925
426.371	44.16377
426.585	45.26274
426.799	50.64408
427.013	52.53701
427.226	52.77287
427.44	51.533
427.654	46.58105
427.868	38.96151
428.081	33.19778
428.295	39.03057
428.509	44.07742
428.723	39.90757
428.936	34.08249
429.15	30.36594
429.364	38.67376
429.577	35.31841
429.791	37.69776
430.005	36.36163
430.218	38.70935
430.432	36.88791
430.645	27.73531
430.859	29.75094
431.073	28.38369
431.286	41.28577
431.5	40.47109
431.713	45.58364
431.927	42.29381
432.14	39.49396
432.354	34.80733
432.567	31.09354
432.781	32.84861
432.994	32.16016
433.207	37.82805
433.421	34.31368
433.634	40.5638
433.848	36.03339
434.061	39.28707
434.274	34.37486
434.488	37.1379
434.701	41.1759
434.914	40.62166
435.127	38.41183
435.341	34.27842
435.554	38.28019
435.767	40.85683
435.98	44.14394
436.194	48.67529
436.407	48.34977
436.62	47.96474
436.833	45.71656
437.046	49.10383
437.259	46.29379
437.473	48.21841
437.686	48.37418
437.899	51.79549
438.112	48.53742
438.325	43.32863
438.538	46.75023
438.751	49.46036
438.964	57.14652
439.177	53.52758
439.39	53.54811
439.603	52.9977
439.816	53.68408
440.029	54.2952
440.242	53.17837
440.455	61.02475
440.668	62.27062
440.881	64.524
441.094	63.67492
441.306	72.19741
441.519	78.50417
441.732	74.40435
441.945	68.4775
442.158	59.82159
442.37	62.43256
442.583	63.00484
442.796	60.69181
443.009	55.93222
443.222	51.95078
443.434	58.07318
443.647	60.3463
443.86	63.76057
444.072	57.93778
444.285	53.31703
444.498	50.81536
444.71	51.56494
444.923	54.00795
445.136	49.21775
445.348	52.76994
445.561	54.40669
445.773	56.75471
445.986	53.85517
446.198	56.88263
446.411	61.96075
446.623	62.96441
446.836	61.8923
447.048	49.94106
447.261	46.2589
447.473	37.52182
447.686	43.34902
447.898	44.94584
448.11	59.58399
448.323	59.13084
448.535	52.19555
448.748	38.57236
448.96	36.48516
449.172	38.14878
449.385	42.54282
449.597	41.40719
449.809	43.9129
450.021	40.07166
450.234	43.77801
450.446	46.21609
450.658	51.46717
450.87	50.00096
451.083	53.64044
451.295	55.44928
451.507	56.30324
451.719	60.31161
451.931	62.6486
452.143	70.56032
452.356	68.18706
452.568	68.58067
452.78	63.2412
452.992	65.12316
453.204	61.12245
453.416	64.20552
453.628	65.22401
453.84	71.79626
454.052	83.57586
454.264	86.62222
454.476	85.68614
454.688	79.02016
454.9	75.97214
455.112	71.01744
455.324	68.12911
455.536	71.73947
455.747	74.53447
455.959	77.90322
456.171	74.2289
456.383	75.88671
456.595	74.55824
456.807	70.16885
457.018	68.68155
457.23	66.65779
457.442	71.10393
457.654	72.43146
457.865	71.80597
458.077	76.23233
458.289	78.80791
458.501	81.5965
458.712	80.24416
458.924	79.01198
459.136	68.43025
459.347	66.07603
459.559	63.02031
459.77	65.20236
459.982	61.45557
460.194	57.9997
460.405	57.28551
460.617	59.44147
460.828	58.89524
461.04	57.87637
461.251	54.85139
461.463	53.77197
461.674	50.0614
461.886	45.95395
462.097	45.40131
462.309	53.55037
462.52	58.15182
462.731	55.41972
462.943	50.63493
463.154	42.80976
463.366	49.52093
463.577	44.1076
463.788	50.9923
464	48.05255
464.211	55.15634
464.422	51.7669
464.634	52.7813
464.845	51.47446
465.056	55.57192
465.267	51.34226
465.478	58.51214
465.69	56.94194
465.901	59.87007
466.112	52.77056
466.323	48.675
466.534	48.40745
466.745	49.86963
466.957	46.25444
467.168	50.29452
467.379	49.94338
467.59	58.40612
467.801	53.16378
468.012	51.26461
468.223	47.36227
468.434	43.84319
468.645	42.7012
468.856	44.29519
469.067	47.94469
469.278	53.68042
469.489	48.82924
469.7	48.79691
469.911	43.45803
470.122	54.56299
470.333	62.19351
470.543	61.01843
470.754	59.77831
470.965	52.99593
471.176	59.53705
471.387	56.34588
471.598	59.08309
471.808	66.87697
472.019	63.03381
472.23	64.65618
472.441	55.04632
472.651	58.8608
472.862	56.61331
473.073	59.02176
473.283	57.58459
473.494	58.46522
473.705	57.12761
473.915	61.0833
474.126	59.51621
474.337	63.29335
474.547	59.2052
474.758	58.75657
474.968	64.14719
475.179	67.06775
475.389	69.40157
475.6	56.51693
475.81	60.0798
476.021	61.20221
476.231	71.71783
476.442	67.61459
476.652	67.37988
476.863	59.67436
477.073	58.07572
477.284	57.62055
477.494	67.56856
477.704	66.6267
477.915	66.68689
478.125	61.65513
478.335	61.45469
478.546	64.74578
478.756	64.72661
478.966	66.68799
479.177	68.57101
479.387	66.89449
479.597	69.62922
479.807	71.03346
480.018	66.1139
480.228	68.12873
480.438	63.96057
480.648	69.09321
480.858	71.71387
481.068	68.90448
481.279	72.06574
481.489	77.96702
481.699	82.78543
481.909	87.69629
482.119	87.97319
482.329	97.94667
482.539	105.97311
482.749	109.4457
482.959	115.46724
483.169	123.09419
483.379	135.82151
483.589	142.08445
483.799	148.23574
484.009	154.77612
484.219	169.37602
484.429	175.83643
484.639	184.78811
484.849	180.40865
485.059	180.02951
485.268	176.98278
485.478	174.86484
485.688	183.54006
485.898	186.77206
486.108	199.32707
486.317	210.86417
486.527	227.43146
486.737	244.39963
486.947	248.75758
487.156	254.49421
487.366	256.99418
487.576	268.20838
487.785	275.15995
487.995	281.17169
488.205	282.66531
488.414	285.91556
488.624	294.44912
488.834	295.45909
489.043	295.82362
489.253	295.03663
489.462	301.74102
489.672	301.51281
489.882	295.27261
490.091	293.22922
490.301	298.57155
490.51	306.14093
490.72	306.99355
490.929	302.83656
491.138	298.42734
491.348	299.06282
491.557	289.55124
491.767	285.61244
491.976	270.22294
492.185	262.60942
492.395	257.20708
492.604	258.01574
492.813	258.00768
493.023	249.77325
493.232	245.53516
493.441	241.3571
493.651	234.5332
493.86	223.01273
494.069	222.98578
494.278	222.44416
494.488	225.0806
494.697	217.40375
494.906	213.25577
495.115	201.41636
495.324	191.81823
495.533	181.29888
495.743	183.033
495.952	179.71577
496.161	177.34418
496.37	166.48292
496.579	163.79428
496.788	158.14077
496.997	152.54344
497.206	141.7543
497.415	133.6575
497.624	127.44218
497.833	115.84484
498.042	109.17378
498.251	99.30488
498.46	99.05337
498.669	99.2194
498.878	103.1014
499.087	110.09719
499.296	110.84464
499.504	104.99061
499.713	100.00703
499.922	101.69815
500.131	97.97688
500.34	90.75018
500.549	84.99938
500.757	87.03457
500.966	92.01738
501.175	90.31923
501.384	98.59043
501.592	101.68412
501.801	102.95386
502.01	93.57002
502.218	95.75348
502.427	96.15014
502.636	104.77278
502.844	102.00384
503.053	102.30165
503.262	95.89423
503.47	94.78733
503.679	95.38314
503.887	95.89693
504.096	94.21657
504.304	91.41146
504.513	93.783
504.721	89.66568
504.93	90.47533
505.138	86.40958
505.347	94.45368
505.555	93.24246
505.764	93.70376
505.972	94.3812
506.18	93.22012
506.389	93.33676
506.597	89.86628
506.806	86.34834
507.014	91.57785
507.222	93.49679
507.431	99.70239
507.639	97.31701
507.847	95.35304
508.055	96.92795
508.264	100.2071
508.472	102.54558
508.68	104.4316
508.888	102.57571
509.096	97.60412
509.305	95.06395
509.513	94.52535
509.721	96.20564
509.929	93.99807
510.137	93.85591
510.345	91.76575
510.553	92.96448
510.762	95.504
510.97	96.83336
511.178	99.95069
511.386	100.81897
511.594	103.27653
511.802	100.14235
512.01	93.36553
512.218	93.60289
512.426	87.33028
512.634	90.99662
512.842	90.80091
513.049	100.43959
513.257	105.87803
513.465	101.35325
513.673	98.8177
513.881	98.20297
514.089	101.62006
514.297	101.51863
514.504	97.3938
514.712	86.32063
514.92	89.79011
515.128	82.54648
515.336	92.80414
515.543	89.42818
515.751	97.91401
515.959	100.0031
516.166	105.28374
516.374	106.64797
516.582	106.07583
516.789	106.0716
516.997	109.59635
517.205	114.74199
517.412	114.69548
517.62	116.36559
517.827	116.41792
518.035	121.28942
518.243	120.69387
518.45	125.37399
518.658	129.3618
518.865	139.25504
519.073	144.55312
519.28	153.39113
519.488	156.83742
519.695	170.58925
519.902	180.43084
520.11	196.52689
520.317	196.21687
520.525	202.22139
520.732	209.48104
520.939	222.10697
521.147	232.33253
521.354	236.38041
521.561	247.03916
521.769	248.74141
521.976	251.94012
522.183	250.45855
522.391	254.69102
522.598	256.30863
522.805	254.75127
523.012	243.59615
523.219	241.63589
523.427	238.10458
523.634	246.33415
523.841	238.57958
524.048	239.79221
524.255	233.08675
524.462	239.2112
524.669	235.54519
524.877	240.56465
525.084	235.30778
525.291	232.79102
525.498	231.16405
525.705	228.43414
525.912	227.52665
526.119	220.70833
526.326	215.91074
526.533	217.40761
526.74	217.75285
526.947	217.39184
527.153	213.87874
527.36	204.58329
527.567	205.27894
527.774	194.18437
527.981	189.23532
528.188	176.25389
528.395	175.36064
528.602	167.70595
528.808	168.87624
529.015	163.51507
529.222	149.43218
529.429	129.67046
529.635	112.9584
529.842	112.85646
530.049	115.57428
530.256	114.48887
530.462	109.78485
530.669	102.17942
530.876	96.42133
531.082	93.39127
531.289	90.32244
531.495	91.31326
531.702	89.26677
531.909	90.78596
532.115	88.7777
532.322	86.89545
532.528	81.95467
532.735	81.31817
532.941	81.87408
533.148	85.45961
533.354	82.26495
533.561	81.03376
533.767	74.0379
533.974	82.0796
534.18	83.46541
534.387	89.55574
534.593	76.14479
534.799	80.47278
535.006	83.0018
535.212	90.09996
535.418	90.76984
535.625	88.0388
535.831	92.88177
536.037	87.75707
536.244	87.28959
536.45	84.39872
536.656	85.44331
536.862	89.10253
537.068	89.8114
537.275	92.37532
537.481	87.48671
537.687	85.70772
537.893	80.67541
538.099	86.85421
538.305	89.58441
538.512	96.93597
538.718	89.71089
538.924	91.5264
539.13	88.99294
539.336	92.67639
539.542	90.23207
539.748	86.45999
539.954	89.50122
540.16	89.12027
540.366	91.703
540.572	90.10043
540.778	88.3092
540.984	92.1085
541.19	93.56953
541.396	88.29667
541.602	80.86055
541.807	72.99211
542.013	85.38547
542.219	84.24949
542.425	91.8471
542.631	84.66529
542.837	89.14646
543.042	88.47996
543.248	86.1716
543.454	87.64148
543.66	85.97477
543.865	86.99005
544.071	82.41627
544.277	86.49103
544.483	92.62479
544.688	91.93906
544.894	87.67395
545.1	89.46317
545.305	91.69717
545.511	88.59889
545.716	81.08994
545.922	81.19084
546.128	80.51687
546.333	77.56086
546.539	77.82721
546.744	73.85056
546.95	75.6026
547.155	75.46886
547.361	75.7185
547.566	75.3979
547.772	70.48088
547.977	70.98536
548.182	73.35089
548.388	79.01932
548.593	79.92386
548.799	80.42253
549.004	75.7368
549.209	75.9961
549.415	73.09357
549.62	79.80632
549.825	80.78091
550.031	85.34462
550.236	82.019
550.441	85.32073
550.646	82.90719
550.852	83.75535
551.057	82.51317
551.262	78.89329
551.467	74.66358
551.672	59.58784
551.878	57.42157
552.083	54.55873
552.288	60.02681
552.493	57.48084
552.698	61.74104
552.903	68.61672
553.108	69.29039
553.313	69.62756
553.518	71.15849
553.723	73.94447
553.928	74.45437
554.133	71.18574
554.338	68.22196
554.543	67.59515
554.748	64.9298
554.953	72.75119
555.158	74.32418
555.363	79.36114
555.568	74.00803
555.773	70.77909
555.978	64.60329
556.182	70.63237
556.387	71.41099
556.592	74.24599
556.797	67.9525
557.002	67.1336
557.206	74.23018
557.411	81.72674
557.616	86.22892
557.821	91.23274
558.025	89.52044
558.23	91.47416
558.435	83.85383
558.64	87.76279
558.844	84.45506
559.049	88.69212
559.253	89.59853
559.458	93.24452
559.663	94.40231
559.867	95.1156
560.072	101.73906
560.276	110.89607
560.481	118.58956
560.685	127.73195
560.89	131.98062
561.094	141.79073
561.299	143.34828
561.503	149.03011
561.708	149.21361
561.912	156.04921
562.117	162.91596
562.321	171.24616
562.525	174.36731
562.73	173.26753
562.934	173.80726
563.139	178.13862
563.343	179.84146
563.547	176.68136
563.752	176.96797
563.956	183.08008
564.16	190.35628
564.364	183.242
564.569	176.0088
564.773	175.38482
564.977	179.46005
565.181	187.64874
565.385	184.22185
565.59	184.83779
565.794	177.4135
565.998	170.61351
566.202	167.46921
566.406	170.67646
566.61	176.07153
566.814	179.31971
567.018	180.6517
567.222	177.99638
567.426	173.45364
567.63	165.36531
567.834	168.98548
568.038	169.52697
568.242	172.6307
568.446	169.14602
568.65	166.97478
568.854	164.75741
569.058	163.01929
569.262	157.61625
569.466	151.61148
569.67	136.49558
569.874	133.2483
570.078	128.7936
570.281	131.56017
570.485	126.09503
570.689	126.01921
570.893	124.82777
571.097	124.38114
571.3	120.22741
571.504	112.67388
571.708	110.50528
571.912	108.00095
572.115	112.59057
572.319	110.83745
572.523	107.22661
572.726	102.9072
572.93	96.31223
573.133	85.77324
573.337	84.8937
573.541	87.06497
573.744	90.29147
573.948	87.72935
574.151	80.20969
574.355	73.40623
574.558	75.26655
574.762	76.20752
574.965	86.04667
575.169	89.83224
575.372	95.7901
575.576	99.84195
575.779	92.23512
575.983	91.64746
576.186	78.43939
576.389	80.98783
576.593	79.45078
576.796	89.23888
577	91.3517
577.203	94.09094
577.406	87.56085
577.609	90.28286
577.813	92.98811
578.016	96.33992
578.219	89.35916
578.423	85.74298
578.626	81.05838
578.829	81.89916
579.032	82.45042
579.235	88.91359
579.438	89.92875
579.642	86.84381
579.845	84.30944
580.048	77.56271
580.251	78.53692
580.454	84.22942
580.657	90.55712
580.86	92.29282
581.063	91.32909
581.266	91.84298
581.469	89.48019
581.672	91.10628
581.875	87.57593
582.078	91.2571
582.281	90.01711
582.484	95.37939
582.687	93.6937
582.89	91.25258
583.093	96.05802
583.296	102.30222
583.499	103.31336
583.702	93.62571
583.904	93.08854
584.107	97.73464
584.31	100.83988
584.513	99.22042
584.716	97.23337
584.918	106.15171
585.121	104.94696
585.324	103.87636
585.527	92.51831
585.729	96.61208
585.932	94.14897
586.135	103.09232
586.337	103.96245
586.54	102.0642
586.743	98.03004
586.945	90.60063
587.148	92.13445
587.35	89.56906
587.553	95.70153
587.755	98.11792
587.958	99.98007
588.161	100.45148
588.363	103.14197
588.566	106.63384
588.768	100.59518
588.971	100.97975
