Data from H2O_Subt9__0__00040.txt Node

Date: Tue Nov 04 10:20:29 EST 2025
User: brett
Spectrometer: USB4F03499
Trigger mode: 4
Integration Time (sec): 3.000000E-2
Scans to average: 15
Electric dark correction enabled: true
Nonlinearity correction enabled: true
Boxcar width: 1
XAxis mode: Wavelengths
Number of Pixels in Spectrum: 3648
>>>>>Begin Spectral Data<<<<<
345.386	2.88652
345.605	2.88652
345.824	5.59486
346.044	-0.27696
346.263	-0.44068
346.482	-4.8772
346.701	3.40709
346.92	5.10236
347.139	3.66804
347.358	-0.79772
347.577	-0.50321
347.796	0.21361
348.015	3.01637
348.234	-1.22274
348.453	-2.91736
348.672	-5.62337
348.891	-4.64504
349.11	4.44922
349.329	9.53359
349.548	12.01007
349.767	17.81371
349.986	22.79799
350.205	28.53678
350.424	24.42971
350.643	26.09411
350.862	20.02852
351.08	19.40332
351.299	16.40406
351.518	18.19819
351.737	17.93781
351.956	22.23668
352.174	26.53795
352.393	27.90895
352.612	24.84581
352.831	25.27305
353.049	28.3019
353.268	25.11061
353.487	30.06283
353.705	21.91858
353.924	23.8082
354.143	19.76543
354.361	24.94563
354.58	27.97794
354.798	32.56682
355.017	38.62539
355.236	38.81973
355.454	31.2313
355.673	31.19443
355.891	30.41131
356.11	31.58521
356.328	33.37909
356.547	40.01996
356.765	46.11034
356.984	42.56228
357.202	39.01539
357.42	43.89553
357.639	42.84937
357.857	44.17977
358.076	42.97701
358.294	49.75762
358.512	51.35615
358.731	54.96581
358.949	55.2146
359.167	53.74267
359.386	50.39526
359.604	47.4596
359.822	53.49119
360.04	51.59973
360.259	54.95603
360.477	51.99188
360.695	55.24153
360.913	60.03449
361.131	62.27613
361.35	57.88058
361.568	56.47727
361.786	56.14347
362.004	61.49252
362.222	59.05074
362.44	58.64103
362.658	57.03758
362.876	55.05178
363.094	57.81828
363.312	57.76142
363.53	57.04398
363.749	53.2968
363.967	53.55503
364.184	53.84528
364.402	59.09031
364.62	58.21278
364.838	53.46605
365.056	44.04947
365.274	42.64397
365.492	41.01621
365.71	38.02329
365.928	37.67031
366.146	37.01787
366.364	42.39595
366.581	33.66819
366.799	32.6634
367.017	28.46733
367.235	25.66542
367.453	24.71691
367.67	22.50074
367.888	24.61752
368.106	26.30223
368.323	22.03167
368.541	16.36233
368.759	14.64678
368.977	21.19477
369.194	31.2326
369.412	32.43786
369.629	26.60339
369.847	21.09469
370.065	22.98422
370.282	25.59231
370.5	33.44149
370.717	28.48808
370.935	25.26407
371.152	17.87117
371.37	20.99751
371.588	28.09664
371.805	39.82212
372.022	33.17702
372.24	33.30902
372.457	25.32788
372.675	40.67727
372.892	34.22647
373.11	33.99919
373.327	25.26758
373.544	30.15525
373.762	28.23383
373.979	29.7269
374.196	29.49795
374.414	35.71888
374.631	37.44856
374.848	38.29336
375.066	43.43741
375.283	40.24427
375.5	41.09154
375.717	38.03466
375.935	38.06581
376.152	35.91369
376.369	37.24509
376.586	39.74812
376.803	45.32018
377.02	43.79152
377.238	45.00335
377.455	41.35214
377.672	41.15824
377.889	44.47562
378.106	44.54894
378.323	44.90894
378.54	44.70918
378.757	42.45738
378.974	45.93513
379.191	42.62225
379.408	46.88745
379.625	41.02166
379.842	46.13693
380.059	50.82619
380.276	56.79187
380.493	51.70289
380.71	45.5154
380.927	43.97474
381.143	51.14319
381.36	54.29421
381.577	62.86473
381.794	58.42863
382.011	55.43497
382.228	45.66178
382.444	44.95101
382.661	51.27428
382.878	50.66486
383.095	50.50002
383.311	51.83345
383.528	55.12301
383.745	58.02361
383.962	53.40349
384.178	44.4803
384.395	41.94038
384.612	42.81256
384.828	50.23305
385.045	44.76112
385.261	38.90663
385.478	36.49934
385.695	39.68818
385.911	37.34184
386.128	39.16808
386.344	39.30396
386.561	49.84883
386.777	48.90152
386.994	57.26379
387.21	56.35641
387.427	54.50421
387.643	51.93735
387.86	56.23168
388.076	65.64102
388.292	58.89208
388.509	53.72064
388.725	47.52349
388.942	48.37839
389.158	43.03494
389.374	39.1962
389.591	41.63731
389.807	43.55945
390.023	48.90585
390.239	50.4063
390.456	48.02564
390.672	47.96149
390.888	46.94298
391.104	52.08902
391.321	52.02176
391.537	48.77343
391.753	44.5052
391.969	42.2187
392.185	46.8744
392.401	50.39988
392.618	57.01351
392.834	55.28461
393.05	56.64477
393.266	50.942
393.482	47.75093
393.698	45.86209
393.914	44.30472
394.13	51.01764
394.346	52.15724
394.562	54.79943
394.778	53.81536
394.994	52.8761
395.21	53.15934
395.426	50.20335
395.642	51.41083
395.858	47.3467
396.073	52.58265
396.289	50.92047
396.505	46.49217
396.721	47.92965
396.937	52.22247
397.153	55.25019
397.369	56.35881
397.584	51.15263
397.8	49.13078
398.016	43.03649
398.232	42.48036
398.447	50.27044
398.663	44.67596
398.879	44.25489
399.094	42.91234
399.31	44.96025
399.526	47.88748
399.741	41.15284
399.957	44.18487
400.173	42.65796
400.388	48.74672
400.604	42.3596
400.82	44.11441
401.035	45.90414
401.251	47.79593
401.466	47.09036
401.682	41.68315
401.897	45.42472
402.113	43.40103
402.328	45.55349
402.544	44.96679
402.759	44.05346
402.974	41.18348
403.19	43.37246
403.405	36.4693
403.621	28.815
403.836	27.02188
404.051	35.49397
404.267	51.32
404.482	49.10119
404.697	45.44962
404.913	36.07651
405.128	39.463
405.343	40.83448
405.559	39.82518
405.774	38.55809
405.989	39.95213
406.204	47.99424
406.42	48.0595
406.635	53.10789
406.85	49.29438
407.065	42.8462
407.28	39.91847
407.495	42.43117
407.71	46.30486
407.926	41.06307
408.141	40.14368
408.356	44.76614
408.571	51.8282
408.786	53.36259
409.001	51.12179
409.216	49.26935
409.431	45.26327
409.646	46.50178
409.861	44.99609
410.076	49.46346
410.291	45.06359
410.506	49.9553
410.721	49.29866
410.936	59.19834
411.15	51.41236
411.365	48.83542
411.58	45.54756
411.795	52.29082
412.01	55.58353
412.225	60.60093
412.439	59.91484
412.654	60.40332
412.869	55.38636
413.084	52.81552
413.299	51.02923
413.513	45.36254
413.728	44.34697
413.943	40.82574
414.157	40.20273
414.372	42.02525
414.587	45.31134
414.801	51.42887
415.016	49.28643
415.231	50.20599
415.445	47.44076
415.66	49.65338
415.874	46.06806
416.089	45.16139
416.304	43.82644
416.518	50.76583
416.733	51.12173
416.947	48.80881
417.162	43.88175
417.376	40.75306
417.59	40.918
417.805	39.46069
418.019	40.7002
418.234	47.18273
418.448	49.19813
418.663	57.05462
418.877	60.56668
419.091	54.15174
419.306	52.02631
419.52	44.31124
419.734	53.06658
419.949	47.53363
420.163	50.6287
420.377	45.58511
420.591	41.1539
420.806	33.49975
421.02	33.95779
421.234	40.72798
421.448	44.9632
421.663	47.21388
421.877	46.08111
422.091	46.24194
422.305	45.84581
422.519	47.30807
422.733	43.43437
422.947	40.24615
423.161	34.48188
423.376	42.09712
423.59	44.11662
423.804	45.80789
424.018	39.87942
424.232	40.88276
424.446	42.87097
424.66	42.98028
424.874	45.26752
425.088	47.65912
425.302	49.31526
425.515	49.82417
425.729	49.74682
425.943	52.87053
426.157	50.88184
426.371	54.8416
426.585	52.62172
426.799	56.44258
427.013	53.1638
427.226	55.90486
427.44	49.49071
427.654	45.41734
427.868	42.58354
428.081	35.93958
428.295	39.46188
428.509	38.71421
428.723	45.18866
428.936	47.14281
429.15	44.07713
429.364	41.05728
429.577	35.58737
429.791	36.20921
430.005	42.62034
430.218	47.76764
430.432	53.33415
430.645	43.59781
430.859	34.96639
431.073	25.78731
431.286	38.58981
431.5	49.4604
431.713	58.99981
431.927	50.92481
432.14	46.50016
432.354	36.47426
432.567	37.18894
432.781	31.39117
432.994	36.10773
433.207	40.86324
433.421	41.4515
433.634	42.62435
433.848	36.49897
434.061	36.98475
434.274	40.79525
434.488	48.66541
434.701	54.10278
434.914	45.76876
435.127	41.96698
435.341	35.94575
435.554	37.96271
435.767	39.62836
435.98	44.67321
436.194	48.48833
436.407	54.80069
436.62	55.0346
436.833	54.28364
437.046	51.2277
437.259	45.94375
437.473	45.3938
437.686	45.51586
437.899	50.33649
438.112	57.94917
438.325	50.65874
438.538	52.74618
438.751	50.70358
438.964	58.77979
439.177	54.96566
439.39	55.89847
439.603	51.4103
439.816	52.03145
440.029	53.03179
440.242	56.08011
440.455	63.60175
440.668	62.24618
440.881	61.40894
441.094	62.60899
441.306	68.92066
441.519	75.26118
441.732	70.44584
441.945	66.98995
442.158	58.04014
442.37	62.2454
442.583	66.65692
442.796	71.10988
443.009	69.21296
443.222	64.38529
443.434	68.03536
443.647	64.02997
443.86	61.68647
444.072	56.5485
444.285	53.26121
444.498	53.97993
444.71	54.69693
444.923	59.22211
445.136	52.34939
445.348	51.9966
445.561	53.89428
445.773	55.59126
445.986	58.84156
446.198	57.31283
446.411	62.00131
446.623	57.31084
446.836	58.77714
447.048	52.22755
447.261	47.82952
447.473	45.63164
447.686	51.5876
447.898	49.83225
448.11	61.63174
448.323	62.09005
448.535	62.05419
448.748	50.42619
448.96	44.04424
449.172	46.52185
449.385	44.95985
449.597	45.38651
449.809	42.81454
450.021	41.08892
450.234	39.81652
450.446	42.61325
450.658	50.43564
450.87	59.31304
451.083	61.58741
451.295	60.1407
451.507	57.38666
451.719	64.90701
451.931	62.88637
452.143	64.81132
452.356	60.90961
452.568	70.14631
452.78	71.21595
452.992	72.67554
453.204	64.90494
453.416	60.70152
453.628	66.04462
453.84	69.85261
454.052	81.08245
454.264	82.63212
454.476	89.5966
454.688	87.38328
454.9	83.7184
455.112	74.27748
455.324	74.15384
455.536	77.43884
455.747	81.0131
455.959	76.96822
456.171	74.75738
456.383	75.04972
456.595	79.2805
456.807	80.45366
457.018	77.27618
457.23	73.3018
457.442	69.1614
457.654	71.26914
457.865	69.70129
458.077	69.08825
458.289	68.15227
458.501	76.0778
458.712	84.99965
458.924	89.9778
459.136	82.1309
459.347	69.14249
459.559	62.18484
459.77	58.11991
459.982	63.2513
460.194	59.73037
460.405	63.76706
460.617	61.53314
460.828	66.81096
461.04	67.1554
461.251	69.62735
461.463	65.78212
461.674	61.12998
461.886	46.8059
462.097	46.57882
462.309	48.4488
462.52	59.46118
462.731	58.48759
462.943	55.33004
463.154	51.05079
463.366	54.11646
463.577	49.35406
463.788	51.84648
464	48.41845
464.211	50.54175
464.422	52.00177
464.634	54.64317
464.845	56.78717
465.056	57.46715
465.267	54.15011
465.478	61.54785
465.69	58.28617
465.901	57.34044
466.112	52.90968
466.323	51.87251
466.534	57.13492
466.745	57.32752
466.957	57.25962
467.168	52.71151
467.379	52.78397
467.59	59.06437
467.801	59.61369
468.012	57.03056
468.223	53.55276
468.434	51.59531
468.645	49.15183
468.856	50.02949
469.067	54.10179
469.278	56.25783
469.489	52.28627
469.7	50.5949
469.911	52.28526
470.122	56.2965
470.333	63.862
470.543	68.05344
470.754	69.28611
470.965	63.47979
471.176	60.52192
471.387	58.24157
471.598	58.6361
471.808	66.75524
472.019	66.26307
472.23	65.21768
472.441	60.81328
472.651	62.54575
472.862	70.99691
473.073	70.96505
473.283	70.17831
473.494	61.40123
473.705	60.61649
473.915	58.55643
474.126	60.37197
474.337	59.46478
474.547	61.55477
474.758	65.33558
474.968	67.02143
475.179	68.34784
475.389	71.48941
475.6	68.09935
475.81	72.93079
476.021	72.6276
476.231	75.17524
476.442	74.94233
476.652	72.23459
476.863	71.22965
477.073	66.02115
477.284	69.92302
477.494	76.71559
477.704	77.88831
477.915	69.78603
478.125	67.68123
478.335	66.73183
478.546	71.84409
478.756	65.58147
478.966	68.38949
479.177	68.2238
479.387	74.05912
479.597	74.19132
479.807	75.10776
480.018	71.87988
480.228	71.0649
480.438	69.30314
480.648	73.55429
480.858	71.98225
481.068	70.27752
481.279	72.56138
481.489	84.86615
481.699	90.04155
481.909	94.69125
482.119	90.452
482.329	99.83797
482.539	106.59609
482.749	110.52486
482.959	117.45463
483.169	121.77062
483.379	132.65199
483.589	137.48557
483.799	149.18388
484.009	163.05433
484.219	173.63377
484.429	181.0968
484.639	185.34874
484.849	186.38139
485.059	183.18055
485.268	180.94427
485.478	183.09842
485.688	185.23119
485.898	189.69426
486.108	198.52244
486.317	217.73114
486.527	236.36822
486.737	254.59278
486.947	259.49561
487.156	272.91729
487.366	270.69743
487.576	283.10494
487.785	287.43463
487.995	294.15644
488.205	294.51989
488.414	293.38057
488.624	305.2063
488.834	313.73172
489.043	313.70991
489.253	310.66287
489.462	309.81663
489.672	313.65433
489.882	313.02858
490.091	308.37201
490.301	311.68009
490.51	312.44069
490.72	313.84196
490.929	311.78246
491.138	305.14603
491.348	301.4883
491.557	292.3041
491.767	291.69119
491.976	287.15617
492.185	273.37581
492.395	267.36067
492.604	261.31968
492.813	259.88901
493.023	254.50061
493.232	246.90019
493.441	247.41021
493.651	244.66381
493.86	244.01381
494.069	239.81603
494.278	234.74601
494.488	229.51987
494.697	221.68112
494.906	212.68066
495.115	203.14061
495.324	199.11544
495.533	188.72506
495.743	182.81448
495.952	177.00263
496.161	175.70025
496.37	171.5475
496.579	166.94656
496.788	162.23349
496.997	154.88658
497.206	141.59879
497.415	133.3085
497.624	130.89222
497.833	126.92554
498.042	119.60531
498.251	105.25613
498.46	102.99251
498.669	104.13282
498.878	106.97529
499.087	106.75872
499.296	105.78493
499.504	99.80047
499.713	101.18391
499.922	100.86149
500.131	98.21272
500.34	91.53904
500.549	87.50917
500.757	89.47929
500.966	90.20587
501.175	94.12679
501.384	98.14401
501.592	105.62311
501.801	106.37314
502.01	102.6408
502.218	101.18622
502.427	101.71353
502.636	106.66443
502.844	104.25285
503.053	100.10046
503.262	99.57426
503.47	103.04743
503.679	103.51322
503.887	100.80998
504.096	101.89311
504.304	103.66991
504.513	105.35922
504.721	95.393
504.93	97.17629
505.138	94.89745
505.347	97.87265
505.555	92.79536
505.764	95.5962
505.972	98.581
506.18	98.68802
506.389	96.07497
506.597	94.55384
506.806	99.70961
507.014	106.98652
507.222	105.49321
507.431	99.74271
507.639	94.40047
507.847	92.07965
508.055	96.25392
508.264	101.64402
508.472	108.33559
508.68	105.2174
508.888	99.23647
509.096	97.12411
509.305	99.71797
509.513	103.50049
509.721	100.6003
509.929	101.09028
510.137	98.18628
510.345	103.05037
510.553	105.41709
510.762	105.55253
510.97	107.82209
511.178	105.41671
511.386	109.89067
511.594	101.17261
511.802	97.25885
512.01	98.57338
512.218	106.05484
512.426	103.29124
512.634	100.94559
512.842	100.74987
513.049	109.1534
513.257	111.05101
513.465	107.07914
513.673	102.36713
513.881	104.57854
514.089	105.39649
514.297	104.64522
514.504	97.36877
514.712	89.90156
514.92	91.16276
515.128	89.67002
515.336	97.2312
515.543	103.11127
515.751	108.76973
515.959	111.96342
516.166	114.58138
516.374	117.50356
516.582	115.33865
516.789	116.73014
516.997	116.13155
517.205	121.27698
517.412	116.91128
517.62	125.65492
517.827	123.23977
518.035	130.80423
518.243	125.18094
518.45	128.20602
518.658	131.83545
518.865	146.36394
519.073	153.80385
519.28	159.3659
519.488	160.24814
519.695	171.44011
519.902	176.51995
520.11	185.42641
520.317	194.02257
520.525	204.72444
520.732	213.11739
520.939	227.32288
521.147	238.61578
521.354	246.64264
521.561	249.05197
521.769	251.98237
521.976	253.43536
522.183	249.81962
522.391	252.95258
522.598	258.83529
522.805	266.16772
523.012	260.63812
523.219	259.90701
523.427	252.72327
523.634	256.26526
523.841	248.44828
524.048	251.86092
524.255	250.23018
524.462	247.10888
524.669	243.24797
524.877	244.80927
525.084	246.95627
525.291	242.79194
525.498	234.34212
525.705	236.3335
525.912	238.43353
526.119	234.1374
526.326	222.22553
526.533	219.48685
526.74	220.6088
526.947	220.79788
527.153	217.285
527.36	207.40692
527.567	212.05287
527.774	201.12184
527.981	198.21345
528.188	181.47835
528.395	179.61383
528.602	173.90515
528.808	170.11581
529.015	165.30702
529.222	148.72846
529.429	138.44146
529.635	122.25037
529.842	125.03796
530.049	119.08802
530.256	122.61471
530.462	114.01534
530.669	112.54606
530.876	101.04095
531.082	99.92751
531.289	96.04943
531.495	99.60838
531.702	97.8547
531.909	98.46323
532.115	94.73112
532.322	96.81342
532.528	98.30616
532.735	95.52555
532.941	90.72008
533.148	88.29538
533.354	93.90578
533.561	96.38066
533.767	91.92164
533.974	90.28093
534.18	89.26016
534.387	91.35137
534.593	85.31872
534.799	86.62486
535.006	88.50359
535.212	97.38673
535.418	97.63341
535.625	94.96742
535.831	89.08732
536.037	88.7726
536.244	87.88262
536.45	89.11894
536.656	89.41637
536.862	92.00291
537.068	87.64185
537.275	86.30615
537.481	82.62017
537.687	87.86149
537.893	89.29724
538.099	90.99168
538.305	94.04577
538.512	95.93652
538.718	96.05538
538.924	91.01463
539.13	87.99348
539.336	90.01979
539.542	90.24009
539.748	89.78418
539.954	92.56482
540.16	96.73299
540.366	94.24527
540.572	93.03343
540.778	91.50233
540.984	98.45367
541.19	99.23206
541.396	95.61754
541.602	88.11636
541.807	86.75036
542.013	92.09146
542.219	96.22046
542.425	92.0513
542.631	89.45169
542.837	92.53301
543.042	98.85356
543.248	99.11342
543.454	98.21251
543.66	92.35283
543.865	89.50095
544.071	87.33453
544.277	90.75921
544.483	94.61677
544.688	93.41078
544.894	95.28876
545.1	92.13889
545.305	91.60883
545.511	82.8547
545.716	85.67978
545.922	80.38436
546.128	82.76658
546.333	80.04036
546.539	86.80856
546.744	86.66823
546.95	84.94107
547.155	86.30188
547.361	84.2747
547.566	85.1899
547.772	74.77958
547.977	74.96058
548.182	74.6273
548.388	81.27131
548.593	84.74288
548.799	88.36224
549.004	84.68439
549.209	78.11654
549.415	71.83346
549.62	78.12348
549.825	80.91906
550.031	86.29545
550.236	83.94524
550.441	87.53958
550.646	84.08579
550.852	82.52775
551.057	82.42355
551.262	82.70352
551.467	83.15672
551.672	72.40863
551.878	64.74852
552.083	61.23606
552.288	61.95413
552.493	62.75845
552.698	65.9445
552.903	74.83625
553.108	73.03844
553.313	78.74217
553.518	80.92316
553.723	88.09993
553.928	82.20269
554.133	73.99161
554.338	66.89691
554.543	64.6444
554.748	63.76739
554.953	76.62988
555.158	83.14497
555.363	86.8491
555.568	82.7951
555.773	78.16811
555.978	74.52846
556.182	72.62382
556.387	74.66976
556.592	79.22806
556.797	77.84452
557.002	76.14757
557.206	81.13011
557.411	85.44044
557.616	90.46306
557.821	87.60089
558.025	87.80574
558.23	87.35389
558.435	89.71125
558.64	92.15804
558.844	86.21785
559.049	86.75041
559.253	86.94203
559.458	92.21285
559.663	96.39153
559.867	98.1768
560.072	103.43676
560.276	106.55465
560.481	112.85191
560.685	122.02742
560.89	128.74365
561.094	137.84065
561.299	142.77164
561.503	154.15962
561.708	157.0672
561.912	166.91652
562.117	167.43023
562.321	173.32887
562.525	176.44928
562.73	175.86781
562.934	177.18585
563.139	177.04492
563.343	187.88376
563.547	185.79296
563.752	189.28566
563.956	182.4077
564.16	187.12419
564.364	185.96972
564.569	189.13445
564.773	187.08494
564.977	181.7027
565.181	180.33519
565.385	186.62776
565.59	187.30853
565.794	188.34039
565.998	174.15313
566.202	175.7075
566.406	172.04532
566.61	175.49745
566.814	173.62583
567.018	180.33579
567.222	186.04042
567.426	183.15064
567.63	171.88745
567.834	165.88269
568.038	169.50452
568.242	174.94218
568.446	179.62474
568.65	170.58006
568.854	162.20301
569.058	155.08342
569.262	156.78278
569.466	151.55465
569.67	145.10251
569.874	139.87764
570.078	138.76388
570.281	132.28123
570.485	128.6015
570.689	128.10378
570.893	128.76271
571.097	122.89586
571.3	122.41033
571.504	118.72106
571.708	116.84445
571.912	109.50246
572.115	109.87059
572.319	109.77423
572.523	109.76826
572.726	106.81313
572.93	95.8329
573.133	87.50461
573.337	83.31096
573.541	90.87513
573.744	94.10168
573.948	97.03132
574.151	90.81244
574.355	86.21979
574.558	89.60743
574.762	89.86544
574.965	99.02135
575.169	96.73075
575.372	96.83829
575.576	90.78458
575.779	84.02187
575.983	88.56908
576.186	81.79503
576.389	87.39839
576.593	88.03719
576.796	93.79564
577	97.92206
577.203	89.41745
577.406	87.98946
577.609	80.76959
577.813	94.88124
578.016	94.00758
578.219	94.72809
578.423	83.15138
578.626	82.59518
578.829	79.69781
579.032	81.80945
579.235	82.68258
579.438	86.88319
579.642	84.4151
579.845	86.88433
580.048	85.36905
580.251	90.86058
580.454	94.21372
580.657	96.31791
580.86	97.30452
581.063	99.49256
581.266	98.67335
581.469	95.43465
581.672	91.56918
581.875	86.60877
582.078	86.97588
582.281	93.40299
582.484	97.56358
582.687	100.23206
582.89	93.73092
583.093	101.81721
583.296	105.13703
583.499	106.01821
583.702	102.43339
583.904	109.30347
584.107	112.64981
584.31	107.57306
584.513	96.40244
584.716	91.2315
584.918	99.63017
585.121	101.34893
585.324	107.55489
585.527	94.7339
585.729	100.41839
585.932	99.12666
586.135	109.9552
586.337	111.96325
586.54	111.07038
586.743	108.14064
586.945	99.93199
587.148	91.39345
587.35	91.42735
587.553	90.02003
587.755	99.16393
587.958	98.97961
588.161	104.32689
588.363	100.42117
