Data from H2O_Subt9__1__00041.txt Node

Date: Tue Nov 04 10:20:30 EST 2025
User: brett
Spectrometer: USB4F03499
Trigger mode: 4
Integration Time (sec): 3.000000E-2
Scans to average: 15
Electric dark correction enabled: true
Nonlinearity correction enabled: true
Boxcar width: 1
XAxis mode: Wavelengths
Number of Pixels in Spectrum: 3648
>>>>>Begin Spectral Data<<<<<
345.386	-13.71899
345.605	-13.71899
345.824	-9.28196
346.044	-5.66025
346.263	-0.99492
346.482	-0.2451
346.701	-0.669
346.92	-4.22319
347.139	-5.36398
347.358	-6.50236
347.577	-0.82834
347.796	3.70237
348.015	8.75339
348.234	9.11096
348.453	-0.14676
348.672	-1.58129
348.891	-8.65474
349.11	4.35087
349.329	1.87336
349.548	9.62986
349.767	14.09755
349.986	23.84074
350.205	25.66896
350.424	19.80212
350.643	17.62177
350.862	12.73074
351.08	7.05713
351.299	8.39111
351.518	11.71585
351.737	17.09105
351.956	20.57596
352.174	24.84465
352.393	25.27069
352.612	20.87216
352.831	23.02652
353.049	29.57275
353.268	31.72272
353.487	32.86295
353.705	21.72196
353.924	25.10886
354.143	27.15699
354.361	32.72878
354.58	33.77506
354.798	31.1672
355.017	35.01183
355.236	35.40122
355.454	32.66469
355.673	31.78218
355.891	27.84035
356.11	34.58239
356.328	37.09237
356.547	39.56695
356.765	38.78612
356.984	41.65151
357.202	42.46639
357.42	40.90207
357.639	40.89637
357.857	45.70849
358.076	47.8255
358.294	54.05273
358.512	57.86369
358.731	58.8062
358.949	51.47276
359.167	46.61664
359.386	48.54023
359.604	51.26516
359.822	56.25588
360.04	57.94376
360.259	53.39468
360.477	50.46321
360.695	44.8628
360.913	54.95924
361.131	54.07748
361.35	54.04172
361.568	47.92078
361.786	46.74218
362.004	53.49028
362.222	54.49723
362.44	53.53205
362.658	49.033
362.876	46.16829
363.094	52.44969
363.312	59.3556
363.53	59.28907
363.749	52.84112
363.967	47.56781
364.184	44.05106
364.402	49.84971
364.62	50.46915
364.838	50.24444
365.056	38.32147
365.274	32.65268
365.492	27.80036
365.71	29.26569
365.928	29.62768
366.146	33.50202
366.364	29.50185
366.581	25.23477
366.799	22.20995
367.017	27.45713
367.235	31.91813
367.453	34.61774
367.67	30.57724
367.888	22.7275
368.106	21.54795
368.323	19.26458
368.541	13.88819
368.759	14.32073
368.977	16.50474
369.194	29.73471
369.412	26.93351
369.629	21.75087
369.847	18.13109
370.065	21.51936
370.282	28.29543
370.5	25.23499
370.717	21.29109
370.935	15.65667
371.152	14.58112
371.37	15.59096
371.588	20.90053
371.805	28.23155
372.022	25.03831
372.24	27.38422
372.457	21.02981
372.675	33.57884
372.892	31.1979
373.11	32.50111
373.327	31.84562
373.544	34.06341
373.762	38.19851
373.979	30.18259
374.196	30.40945
374.414	29.82547
374.631	34.4206
374.848	35.91627
375.066	40.31278
375.283	40.53867
375.5	34.38592
375.717	38.19644
375.935	38.29229
376.152	41.77317
376.369	34.41348
376.586	29.55953
376.803	32.16955
377.02	35.32844
377.238	37.74327
377.455	35.62215
377.672	38.09745
377.889	38.81206
378.106	40.83818
378.323	37.16128
378.54	42.03999
378.757	43.36857
378.974	44.76453
379.191	44.60887
379.408	41.64802
379.625	34.87064
379.842	30.18498
380.059	32.75941
380.276	38.26889
380.493	41.12509
380.71	41.41402
380.927	39.12742
381.143	44.63629
381.36	42.2238
381.577	51.64094
381.794	47.75818
382.011	48.66848
382.228	42.47348
382.444	39.54891
382.661	42.03195
382.878	46.30369
383.095	52.51718
383.311	52.94001
383.528	50.95714
383.745	47.4473
383.962	51.71047
384.178	47.6381
384.395	46.43237
384.612	40.89455
384.828	41.44655
385.045	47.39633
385.261	43.59086
385.478	48.63616
385.695	39.94781
385.911	41.2152
386.128	39.59191
386.344	43.92659
386.561	45.91293
386.777	40.99422
386.994	44.37789
387.21	48.9366
387.427	53.26956
387.643	52.29627
387.86	49.79104
388.076	54.90426
388.292	48.38333
388.509	51.15029
388.725	43.22896
388.942	43.95298
389.158	33.27118
389.374	27.83551
389.591	30.14673
389.807	40.40059
390.023	52.74498
390.239	52.38976
390.456	44.54261
390.672	41.12635
390.888	39.68635
391.104	43.82391
391.321	38.2222
391.537	38.84592
391.753	33.73146
391.969	33.56297
392.185	37.79553
392.401	47.95932
392.618	51.6769
392.834	49.49244
393.05	44.67031
393.266	44.20717
393.482	43.87982
393.698	41.6653
393.914	42.87332
394.13	49.65101
394.346	48.05688
394.562	53.36751
394.778	45.94086
394.994	47.96217
395.21	42.4863
395.426	42.36053
395.642	45.19539
395.858	45.2634
396.073	45.8144
396.289	43.04538
396.505	47.76172
396.721	49.9796
396.937	53.85096
397.153	47.31099
397.369	51.86936
397.584	48.48445
397.8	47.99205
398.016	43.23172
398.232	48.72707
398.447	53.19754
398.663	47.76551
398.879	47.01999
399.094	42.84649
399.31	45.41534
399.526	33.92467
399.741	32.20211
399.957	34.09485
400.173	40.57533
400.388	45.26411
400.604	42.26232
400.82	39.49379
401.035	39.55872
401.251	38.09751
401.466	44.7144
401.682	39.7624
401.897	38.88189
402.113	32.26779
402.328	35.81998
402.544	42.42656
402.759	43.53201
402.974	44.79488
403.19	47.27726
403.405	44.7045
403.621	30.86602
403.836	22.62676
404.051	24.39046
404.267	40.21844
404.482	38.29333
404.697	38.81008
404.913	36.23903
405.128	39.36599
405.343	38.88116
405.559	33.868
405.774	34.48826
405.989	36.274
406.204	40.14991
406.42	42.98215
406.635	53.59402
406.85	54.20678
407.065	47.92155
407.28	38.0628
407.495	40.6407
407.71	42.75638
407.926	46.49982
408.141	43.56299
408.356	46.52619
408.571	38.9389
408.786	38.16227
409.001	40.77086
409.216	45.16852
409.431	40.41291
409.646	39.20997
409.861	37.21705
410.076	47.73872
410.291	45.87809
410.506	48.65344
410.721	41.68284
410.936	42.92474
411.15	39.17473
411.365	39.69018
411.58	43.46484
411.795	54.73101
412.01	56.75443
412.225	56.62979
412.439	53.79638
412.654	60.07624
412.869	58.67166
413.084	53.43234
413.299	50.34556
413.513	49.91943
413.728	51.31197
413.943	48.44146
414.157	52.04595
414.372	49.80149
414.587	46.3839
414.801	40.5286
415.016	40.04496
415.231	45.84587
415.445	46.65947
415.66	44.80334
415.874	40.30667
416.089	42.19896
416.304	44.96551
416.518	49.75706
416.733	42.56119
416.947	44.3813
417.162	38.02307
417.376	42.05524
417.59	42.48099
417.805	47.01125
418.019	49.55249
418.234	53.30097
418.448	52.61507
418.663	51.9112
418.877	47.09276
419.091	45.33177
419.306	45.51874
419.52	42.74892
419.734	48.54199
419.949	46.00292
420.163	49.87956
420.377	44.34834
420.591	46.26384
420.806	40.30199
421.02	39.13267
421.234	37.05038
421.448	39.0718
421.663	41.15962
421.877	43.28129
422.091	43.50761
422.305	41.45195
422.519	34.74283
422.733	35.10114
422.947	33.50718
423.161	32.91907
423.376	41.11839
423.59	46.97877
423.804	47.27073
424.018	41.08239
424.232	36.65103
424.446	39.22522
424.66	42.62454
424.874	43.18527
425.088	43.27136
425.302	40.62935
425.515	38.24501
425.729	42.49144
425.943	39.00753
426.157	40.46868
426.371	40.81872
426.585	42.92851
426.799	47.62645
427.013	48.28295
427.226	46.79214
427.44	45.38958
427.654	38.41955
427.868	37.18045
428.081	32.45821
428.295	42.78193
428.509	43.59655
428.723	42.74712
428.936	37.93226
429.15	35.58309
429.364	34.18869
429.577	33.37333
429.791	33.37623
430.005	39.95161
430.218	37.48047
430.432	36.86293
430.645	28.52562
430.859	27.05726
431.073	35.35771
431.286	43.63596
431.5	50.08074
431.713	46.01442
431.927	43.24519
432.14	39.8281
432.354	36.21532
432.567	39.85963
432.781	38.6516
432.994	40.60017
433.207	40.11477
433.421	38.61966
433.634	39.82509
433.848	35.81556
434.061	35.65027
434.274	31.97357
434.488	30.76602
434.701	36.39887
434.914	41.67222
435.127	39.65603
435.341	34.57877
435.554	32.13554
435.767	40.3772
435.98	44.18515
436.194	51.18995
436.407	52.75228
436.62	52.69294
436.833	52.00677
437.046	45.7574
437.259	39.75765
437.473	40.31554
437.686	43.56587
437.899	48.84239
438.112	45.19375
438.325	45.74518
438.538	48.3207
438.751	51.22597
438.964	53.70519
439.177	49.43548
439.39	51.73339
439.603	52.51704
439.816	60.19865
440.029	58.98776
440.242	53.99925
440.455	56.90058
440.668	54.99051
440.881	54.80139
441.094	49.95109
441.306	58.02038
441.519	63.03092
441.732	61.79346
441.945	57.58965
442.158	54.75476
442.37	61.92061
442.583	68.54353
442.796	72.57403
443.009	65.1142
443.222	61.61989
443.434	62.92823
443.647	61.49279
443.86	58.49911
444.072	56.71103
444.285	57.58808
444.498	50.23621
444.71	45.1602
444.923	47.57052
445.136	44.86337
445.348	53.16716
445.561	52.49417
445.773	58.42227
445.986	56.69439
446.198	55.06762
446.411	62.03245
446.623	56.85342
446.836	59.68696
447.048	46.63012
447.261	46.42961
447.473	39.64514
447.686	43.97545
447.898	47.1663
448.11	66.37681
448.323	64.32857
448.535	55.2136
448.748	39.42708
448.96	40.88725
449.172	46.09875
449.385	44.99213
449.597	39.20125
449.809	43.10472
450.021	44.47088
450.234	50.45738
450.446	46.51831
450.658	49.55641
450.87	50.6928
451.083	50.72274
451.295	50.77422
451.507	49.67592
451.719	57.32714
451.931	55.72938
452.143	62.53546
452.356	59.67389
452.568	66.9937
452.78	65.65591
452.992	67.60361
453.204	61.1644
453.416	60.57165
453.628	61.55701
453.84	65.52804
454.052	72.53032
454.264	74.96031
454.476	81.14529
454.688	78.80163
454.9	79.55713
455.112	68.22857
455.324	65.4042
455.536	63.94205
455.747	71.12679
455.959	76.38262
456.171	78.33365
456.383	78.98354
456.595	76.61456
456.807	77.56013
457.018	78.15448
457.23	77.69133
457.442	71.72992
457.654	69.02542
457.865	65.73461
458.077	65.86912
458.289	69.81015
458.501	74.45115
458.712	80.25197
458.924	77.62165
459.136	72.83135
459.347	65.50117
459.559	65.37286
459.77	60.91707
459.982	62.79662
460.194	59.048
460.405	63.89837
460.617	59.22252
460.828	55.55291
461.04	51.7025
461.251	54.95643
461.463	53.81216
461.674	48.14968
461.886	42.3504
462.097	41.70002
462.309	45.55255
462.52	51.48782
462.731	54.48402
462.943	53.14897
463.154	47.24344
463.366	48.5517
463.577	47.01185
463.788	51.0653
464	42.23468
464.211	47.67859
464.422	46.99084
464.634	55.19791
464.845	52.97983
465.056	52.35867
465.267	50.34294
465.478	49.8639
465.69	49.2707
465.901	46.14382
466.112	47.44187
466.323	45.03735
466.534	49.03369
466.745	47.50159
466.957	45.87189
467.168	44.44564
467.379	46.01455
467.59	52.88263
467.801	53.69246
468.012	52.76965
468.223	53.03218
468.434	50.65187
468.645	52.07966
468.856	52.59948
469.067	53.12529
469.278	51.54021
469.489	46.55982
469.7	45.77895
469.911	46.9812
470.122	48.25825
470.333	54.52168
470.543	51.26372
470.754	52.56265
470.965	45.65001
471.176	49.88141
471.387	44.83388
471.598	55.34766
471.808	58.97621
472.019	62.65069
472.23	59.81605
472.441	60.81311
472.651	63.03315
472.862	58.83375
473.073	59.22476
473.283	62.01671
473.494	61.27033
473.705	59.83503
473.915	54.8804
474.126	55.85133
474.337	59.14019
474.547	61.29494
474.758	62.53816
474.968	58.69454
475.179	60.86685
475.389	68.46597
475.6	65.33615
475.81	70.26503
476.021	67.94408
476.231	72.67079
476.442	64.20815
476.652	61.01264
476.863	60.59356
477.073	59.32052
477.284	63.06122
477.494	64.91071
477.704	65.10739
477.915	62.63035
478.125	66.05344
478.335	73.23553
478.546	75.71355
478.756	64.67003
478.966	61.85188
479.177	64.96996
479.387	69.76414
479.597	75.16553
479.807	70.35873
480.018	68.52976
480.228	61.46921
480.438	63.3826
480.648	71.21013
480.858	78.38578
481.068	78.07839
481.279	77.89246
481.489	84.6387
481.699	83.57358
481.909	86.82647
482.119	85.64149
482.329	94.80451
482.539	100.42741
482.749	105.97863
482.959	118.915
483.169	129.20438
483.379	138.84951
483.589	141.2496
483.799	146.58975
484.009	155.43311
484.219	165.52737
484.429	171.17723
484.639	181.13324
484.849	182.32822
485.059	179.90872
485.268	173.104
485.478	175.93948
485.688	187.98393
485.898	195.16753
486.108	199.91818
486.317	211.5843
486.527	223.75163
486.737	243.95403
486.947	250.34637
487.156	262.93592
487.366	264.33574
487.576	276.51776
487.785	284.85348
487.995	295.9644
488.205	295.16535
488.414	295.92964
488.624	299.84754
488.834	303.47148
489.043	307.0639
489.253	309.18017
489.462	313.33417
489.672	308.5557
489.882	302.70351
490.091	302.69304
490.301	308.29306
490.51	307.85938
490.72	306.61471
490.929	301.16703
491.138	302.08325
491.348	296.1324
491.557	289.20453
491.767	285.58871
491.976	280.72977
492.185	270.24192
492.395	259.54239
492.604	263.35466
492.813	262.1176
493.023	259.6687
493.232	245.86592
493.441	245.66495
493.651	236.35204
493.86	235.41099
494.069	228.07327
494.278	230.66871
494.488	222.78961
494.697	217.57179
494.906	208.44163
495.115	198.99733
495.324	199.0523
495.533	189.11531
495.743	189.61894
495.952	180.92377
496.161	176.99543
496.37	165.90719
496.579	158.93845
496.788	156.46239
496.997	150.79987
497.206	143.57909
497.415	132.62623
497.624	131.15062
497.833	120.10681
498.042	114.3771
498.251	100.83979
498.46	103.18756
498.669	100.72218
498.878	102.5252
499.087	99.02681
499.296	104.45162
499.504	103.76345
499.713	109.01307
499.922	103.59081
500.131	97.46505
500.34	91.73356
500.549	93.45394
500.757	95.06729
500.966	92.51294
501.175	87.92335
501.384	92.88154
501.592	93.37556
501.801	98.90063
502.01	92.60215
502.218	99.30242
502.427	99.66707
502.636	110.23822
502.844	104.64234
503.053	102.11383
503.262	99.47598
503.47	102.6255
503.679	104.29386
503.887	97.17228
504.096	96.82508
504.304	97.4968
504.513	103.05202
504.721	96.46453
504.93	93.82963
505.138	90.83637
505.347	93.8437
505.555	89.54541
505.764	85.91283
505.972	87.33859
506.18	85.62392
506.389	86.03345
506.597	84.51141
506.806	90.25626
507.014	98.18258
507.222	100.1668
507.431	95.94126
507.639	93.13324
507.847	94.5808
508.055	104.24596
508.264	104.14654
508.472	105.70526
508.68	102.1329
508.888	99.6921
509.096	95.04576
509.305	95.65733
509.513	99.56979
509.721	98.87865
509.929	98.03648
510.137	90.68064
510.345	97.49369
510.553	97.09969
510.762	107.43658
510.97	105.45105
511.178	107.20354
511.386	103.88228
511.594	97.95735
511.802	90.04772
512.01	92.69342
512.218	96.86172
512.426	100.9199
512.634	100.68541
512.842	99.90487
513.049	100.31659
513.257	101.95452
513.465	99.05435
513.673	98.43573
513.881	97.82101
514.089	103.64169
514.297	106.88691
514.504	109.61789
514.712	101.11117
514.92	98.57127
515.128	87.52596
515.336	93.72299
515.543	93.72487
515.751	101.81916
515.959	100.82174
516.166	113.44204
516.374	113.11773
516.582	117.28704
516.789	117.67158
516.997	117.46152
517.205	121.82774
517.412	114.6701
517.62	120.56125
517.827	116.84758
518.035	120.68043
518.243	123.39702
518.45	127.65557
518.658	129.56723
518.865	135.5637
519.073	142.38704
519.28	152.26461
519.488	157.78411
519.695	169.4946
519.902	177.03843
520.11	189.69991
520.317	198.65162
520.525	212.39396
520.732	219.75073
520.939	229.29801
521.147	239.3924
521.354	242.40581
521.561	242.6176
521.769	240.05164
521.976	243.21847
522.183	245.90801
522.391	248.16923
522.598	245.94011
522.805	248.74761
523.012	242.11819
523.219	245.10363
523.427	240.56996
523.634	246.73007
523.841	247.70399
524.048	249.20829
524.255	250.58394
524.462	246.23482
524.669	244.63768
524.877	239.86195
525.084	241.94503
525.291	241.88685
525.498	244.04335
525.705	237.98286
525.912	233.03342
526.119	224.88953
526.326	218.8306
526.533	217.44798
526.74	217.53434
526.947	215.61985
527.153	212.36562
527.36	202.94068
527.567	206.12923
527.774	194.67782
527.981	192.61204
528.188	180.34516
528.395	178.47933
528.602	167.51945
528.808	162.17415
529.015	154.99445
529.222	141.2032
529.429	132.76533
529.635	123.41914
529.842	127.79652
530.049	119.2821
530.256	116.21793
530.462	109.43796
530.669	104.13674
530.876	99.77625
531.082	98.0779
531.289	102.02705
531.495	105.81374
531.702	102.76096
531.909	95.21394
532.115	86.21849
532.322	82.74446
532.528	84.43325
532.735	85.7465
532.941	88.70749
533.148	90.40808
533.354	89.94322
533.561	90.98807
533.767	87.73149
533.974	88.78576
534.18	83.83293
534.387	87.54949
534.593	81.58212
534.799	87.07997
535.006	87.69083
535.212	90.33533
535.418	90.16017
535.625	85.70636
535.831	88.04726
536.037	83.89771
536.244	87.97933
536.45	87.52558
536.656	91.68985
536.862	88.68702
537.068	91.50801
537.275	85.06976
537.481	84.40697
537.687	81.26348
537.893	82.37392
538.099	89.07209
538.305	88.90937
538.512	95.96809
538.718	91.57016
538.924	92.89904
539.13	92.93321
539.336	90.5724
539.542	85.00758
539.748	81.26906
539.954	81.81011
540.16	87.31163
540.366	84.04383
540.572	82.69773
540.778	83.63644
540.984	91.49781
541.19	95.23518
541.396	87.16724
541.602	83.01295
541.807	78.81815
542.013	91.14693
542.219	88.4519
542.425	90.32909
542.631	86.46225
542.837	81.74534
543.042	87.31834
543.248	89.95022
543.454	98.73248
543.66	92.74277
543.865	87.19324
544.071	91.26593
544.277	92.80488
544.483	95.81842
544.688	90.6806
544.894	89.76379
545.1	84.66241
545.305	81.56478
545.511	81.91206
545.716	90.10019
545.922	90.29859
546.128	89.593
546.333	80.7882
546.539	78.6485
546.744	77.40265
546.95	80.25956
547.155	81.23153
547.361	77.44937
547.566	78.49459
547.772	74.42274
547.977	74.04965
548.182	73.29387
548.388	78.31215
548.593	83.44275
548.799	83.45386
549.004	81.14164
549.209	78.60534
549.415	75.89788
549.62	79.16379
549.825	74.18808
550.031	74.32944
550.236	71.91434
550.441	82.92228
550.646	81.67966
550.852	82.23512
551.057	75.95297
551.262	77.37218
551.467	77.17504
551.672	72.37777
551.878	68.22867
552.083	64.97622
552.288	63.77581
552.493	60.09139
552.698	59.63499
552.903	60.72038
553.108	65.7179
553.313	71.25946
553.518	74.44985
553.723	77.23819
553.928	79.66487
554.133	78.0879
554.338	76.26299
554.543	71.182
554.748	73.13376
554.953	75.19708
555.158	79.82651
555.363	76.89807
555.568	73.62692
555.773	71.0805
555.978	72.90295
556.182	77.79379
556.387	70.96355
556.592	69.27844
556.797	66.78905
557.002	68.44209
557.206	74.95365
557.411	78.90633
557.616	84.09116
557.821	84.02492
558.025	82.34535
558.23	87.06228
558.435	87.92466
558.64	95.40743
558.844	88.19952
559.049	88.30918
559.253	84.08231
559.458	89.74298
559.663	98.339
559.867	105.12625
560.072	113.27526
560.276	113.43834
560.481	116.13089
560.685	120.59924
560.89	123.87594
561.094	129.11215
561.299	135.08226
561.503	143.4905
561.708	143.15619
561.912	144.2849
562.117	150.21309
562.321	163.9278
562.525	176.02823
562.73	177.52077
562.934	174.17306
563.139	170.69501
563.343	178.55361
563.547	182.61887
563.752	186.89038
563.956	184.83873
564.16	189.74924
564.364	185.77771
564.569	182.46402
564.773	177.30411
564.977	177.42682
565.181	180.14064
565.385	188.47403
565.59	192.84799
565.794	191.35269
565.998	180.73154
566.202	178.36597
566.406	174.37898
566.61	171.86792
566.814	163.4838
567.018	169.57959
567.222	172.98332
567.426	175.37415
567.63	169.0045
567.834	160.20932
568.038	161.04265
568.242	160.38527
568.446	169.15405
568.65	168.66828
568.854	162.52704
569.058	160.30326
569.262	152.53353
569.466	148.95939
569.67	137.31719
569.874	135.0109
570.078	131.33222
570.281	127.73726
570.485	120.19465
570.689	119.0806
570.893	120.84353
571.097	118.12309
571.3	113.8702
571.504	106.1871
571.708	102.58707
571.912	99.7248
572.115	99.99481
572.319	102.66043
572.523	101.16059
572.726	96.02731
572.93	87.4512
573.133	83.11794
573.337	87.2748
573.541	94.6441
573.744	92.70364
573.948	91.73434
574.151	86.52294
574.355	80.53199
574.558	78.26467
574.762	78.45757
574.965	91.02698
575.169	95.4958
575.372	94.0435
575.576	92.40889
575.779	84.24915
575.983	86.39188
576.186	76.7252
576.389	82.39361
576.593	75.94904
576.796	80.6031
577	78.29582
577.203	81.13227
577.406	82.98643
577.609	84.60498
577.813	88.67565
578.016	89.00468
578.219	89.6279
578.423	96.47345
578.626	92.95937
578.829	86.25883
579.032	77.55106
579.235	79.78941
579.438	82.62491
579.642	80.3191
579.845	75.44356
580.048	75.13236
580.251	82.02136
580.454	86.38299
580.657	89.13608
580.86	87.16752
581.063	92.80007
581.266	92.82615
581.469	86.46617
581.672	88.64457
581.875	85.63381
582.078	90.87515
582.281	86.71064
582.484	94.15046
582.687	95.58421
582.89	93.9879
583.093	98.95704
583.296	101.49731
583.499	104.91319
583.702	90.84019
583.904	96.24902
584.107	96.3791
584.31	103.93496
584.513	96.72731
584.716	100.81462
584.918	103.33321
585.121	100.04884
585.324	98.62139
585.527	93.7611
585.729	99.25331
585.932	97.92857
586.135	102.32339
586.337	108.81229
586.54	107.5952
586.743	107.97826
586.945	98.53487
587.148	102.08269
587.35	99.22598
587.553	103.18113
587.755	100.88759
587.958	105.0566
588.161	103.25468
588.363	99.12119
588.566	98.87713
588.768	99.40166
