Data from H2O_Subt9__8__00048.txt Node

Date: Tue Nov 04 10:20:33 EST 2025
User: brett
Spectrometer: USB4F03499
Trigger mode: 4
Integration Time (sec): 3.000000E-2
Scans to average: 15
Electric dark correction enabled: true
Nonlinearity correction enabled: true
Boxcar width: 1
XAxis mode: Wavelengths
Number of Pixels in Spectrum: 3648
>>>>>Begin Spectral Data<<<<<
345.386	0.15493
345.605	0.15493
345.824	2.14536
346.044	-2.87848
346.263	-6.07297
346.482	-2.16562
346.701	4.16254
346.92	10.84475
347.139	5.95729
347.358	3.77349
347.577	2.79682
347.796	0.71058
348.015	0.38357
348.234	-7.54085
348.453	-7.63828
348.672	-8.32284
348.891	-8.94026
349.11	1.13035
349.329	4.32512
349.548	10.7143
349.767	11.95651
349.986	16.94207
350.205	22.32199
350.424	17.10619
350.643	18.31398
350.862	8.47109
351.08	5.11146
351.299	3.35022
351.518	14.10284
351.737	16.09022
351.956	19.96657
352.174	21.00956
352.393	20.68515
352.612	17.65437
352.831	19.4177
353.049	25.99868
353.268	24.5658
353.487	24.76118
353.705	23.81714
353.924	29.32175
354.143	29.25352
354.361	29.02475
354.58	26.87845
354.798	28.50435
355.017	31.07863
355.236	26.97235
355.454	19.48003
355.673	21.26707
355.891	28.88832
356.11	35.17651
356.328	36.48201
356.547	35.24446
356.765	38.40343
356.984	37.42723
357.202	31.9881
357.42	30.58655
357.639	32.69708
357.857	39.92413
358.076	45.71908
358.294	50.48187
358.512	54.74917
358.731	53.18549
358.949	50.14742
359.167	47.01595
359.386	47.833
359.604	42.52262
359.822	51.51489
360.04	51.64111
360.259	54.96481
360.477	48.94214
360.695	47.4091
360.913	54.18658
361.131	53.43517
361.35	49.81999
361.568	41.32245
361.786	42.42143
362.004	46.76089
362.222	51.38067
362.44	47.87656
362.658	53.59329
362.876	50.53338
363.094	54.18005
363.312	51.48954
363.53	50.44672
363.749	47.51283
363.967	42.04285
364.184	36.3122
364.402	38.33574
364.62	41.33142
364.838	47.94272
365.056	40.18525
365.274	34.35348
365.492	22.76043
365.71	23.86777
365.928	23.25248
366.146	28.98454
366.364	29.02263
366.581	29.24954
366.799	31.30606
367.017	31.08071
367.235	26.97684
367.453	23.5855
367.67	20.00043
367.888	17.52373
368.106	16.15047
368.323	15.30101
368.541	10.25032
368.759	13.57939
368.977	17.48982
369.194	31.37137
369.412	31.76237
369.629	33.1556
369.847	23.51014
370.065	22.82685
370.282	19.24931
370.5	24.91803
370.717	25.468
370.935	23.61147
371.152	21.88459
371.37	20.7453
371.588	21.88575
371.805	25.14554
372.022	22.53851
372.24	29.15064
372.457	23.34961
372.675	36.25625
372.892	33.02877
373.11	35.99311
373.327	28.10886
373.544	30.81506
373.762	31.72677
373.979	29.96321
374.196	28.3668
374.414	30.45259
374.631	34.36374
374.848	37.19423
375.066	42.40456
375.283	39.47201
375.5	38.49653
375.717	37.84779
375.935	37.87882
376.152	38.85092
376.369	36.08091
376.586	37.60723
376.803	38.06968
377.02	42.20484
377.238	44.81649
377.455	45.10329
377.672	46.69965
377.889	40.25042
378.106	41.82215
378.323	35.50788
378.54	40.94177
378.757	38.81955
378.974	41.09525
379.191	44.77975
379.408	42.43718
379.625	36.92933
379.842	33.54776
380.059	41.26448
380.276	50.09426
380.493	47.96857
380.71	42.98511
380.927	36.79231
381.143	43.961
381.36	39.46562
381.577	51.61577
381.794	44.21859
382.011	46.88647
382.228	41.82963
382.444	47.88725
382.661	52.51823
382.878	48.55745
383.095	44.42243
383.311	43.5759
383.528	46.3124
383.745	47.91113
383.962	50.41721
384.178	41.03663
384.395	41.42578
384.612	41.58154
384.828	48.84136
385.045	46.65697
385.261	42.39845
385.478	43.34316
385.695	36.99441
385.911	34.09481
386.128	30.87504
386.344	36.93542
386.561	39.96329
386.777	42.27189
386.994	45.16832
387.21	48.55553
387.427	48.36347
387.643	48.88681
387.86	51.71782
388.076	58.36107
388.292	54.93146
388.509	49.04247
388.725	41.83702
388.942	41.4227
389.158	34.19045
389.374	29.56914
389.591	31.52218
389.807	39.17348
390.023	49.43447
390.239	46.27902
390.456	41.39264
390.672	34.03651
390.888	36.14514
391.104	40.15254
391.321	39.46726
391.537	41.45837
391.753	38.49174
391.969	33.50468
392.185	34.87289
392.401	39.6997
392.618	52.62931
392.834	48.36184
393.05	46.40345
393.266	42.71775
393.482	43.33448
393.698	39.06931
393.914	39.07357
394.13	45.75387
394.346	48.9443
394.562	48.00591
394.778	42.7268
394.994	43.7067
395.21	43.89411
395.426	46.24229
395.642	49.23978
395.858	46.28058
396.073	41.3954
396.289	40.51429
396.505	45.6879
396.721	52.91845
396.937	49.30403
397.153	46.60328
397.369	43.96882
397.584	42.73145
397.8	42.1086
398.016	38.39006
398.232	42.4881
398.447	41.03356
398.663	37.32486
398.879	32.70526
399.094	34.13158
399.31	45.39
399.526	47.83023
399.741	47.63815
399.957	41.81884
400.173	40.03042
400.388	42.7005
400.604	39.50361
400.82	39.40438
401.035	37.38606
401.251	35.40322
401.466	41.88986
401.682	36.97003
401.897	40.28976
402.113	33.54568
402.328	38.59558
402.544	37.48803
402.759	36.31438
402.974	33.80251
403.19	39.2463
403.405	37.65017
403.621	28.53062
403.836	25.46783
404.051	30.5533
404.267	39.96924
404.482	39.4758
404.697	37.54991
404.913	31.42722
405.128	30.45235
405.343	32.27974
405.559	37.65352
405.774	41.65911
405.989	43.5409
406.204	45.20288
406.42	44.7474
406.635	48.59171
406.85	49.20501
407.065	46.664
407.28	43.5735
407.495	44.65385
407.71	43.70898
407.926	40.06272
408.141	37.22406
408.356	37.58312
408.571	39.17678
408.786	42.50077
409.001	46.15099
409.216	46.77165
409.431	42.50475
409.646	42.21326
409.861	39.6343
410.076	45.01298
410.291	40.22238
410.506	40.62083
410.721	41.46148
410.936	49.21391
411.15	48.19891
411.365	40.80567
411.58	40.54404
411.795	53.37111
412.01	58.03064
412.225	63.99148
412.439	57.74237
412.654	64.02261
412.869	56.30468
413.084	52.36678
413.299	49.21459
413.513	45.7613
413.728	46.9587
413.943	42.49363
414.157	45.64506
414.372	46.13367
414.587	46.26341
414.801	48.34566
415.016	46.00768
415.231	51.6783
415.445	44.74761
415.66	43.28225
415.874	42.30015
416.089	41.48972
416.304	44.84175
416.518	46.86731
416.733	49.04689
416.947	42.99049
417.162	31.19664
417.376	32.03838
417.59	36.4026
417.805	40.34685
418.019	42.0421
418.234	45.62792
418.448	50.57284
418.663	56.99741
418.877	62.39718
419.091	59.56239
419.306	52.42536
419.52	45.6866
419.734	48.35675
419.949	47.41255
420.163	45.8531
420.377	40.58083
420.591	41.03194
420.806	37.77215
421.02	41.81024
421.234	43.4049
421.448	44.90542
421.663	43.11984
421.877	42.50815
422.091	42.89717
422.305	39.63708
422.519	34.7841
422.733	37.84393
422.947	36.41219
423.161	32.43733
423.376	34.97445
423.59	42.268
423.804	42.36482
424.018	37.64022
424.232	36.13765
424.446	41.73974
424.66	47.90523
424.874	43.713
425.088	37.51966
425.302	34.35685
425.515	37.01856
425.729	43.99613
425.943	39.86153
426.157	35.53013
426.371	39.6878
426.585	40.17023
426.799	49.61922
427.013	51.67508
427.226	51.87672
427.44	46.30816
427.654	37.74437
427.868	37.93753
428.081	33.99597
428.295	37.81093
428.509	36.15148
428.723	38.13419
428.936	36.14949
429.15	29.92632
429.364	31.1702
429.577	31.9502
429.791	40.74214
430.005	40.31756
430.218	43.67452
430.432	43.41583
430.645	38.36611
430.859	35.00925
431.073	32.50307
431.286	41.17205
431.5	40.0318
431.713	38.2748
431.927	35.24509
432.14	34.26869
432.354	35.47505
432.567	34.26861
432.781	29.28366
432.994	27.35783
433.207	29.54179
433.421	35.30729
433.634	36.96857
433.848	35.59624
434.061	33.28215
434.274	32.63308
434.488	32.5321
434.701	35.33361
434.914	35.85389
435.127	38.39586
435.341	35.3358
435.554	37.71024
435.767	39.50591
435.98	43.3796
436.194	45.73006
436.407	44.13498
436.62	43.78202
436.833	41.2731
437.046	40.20007
437.259	38.52967
437.473	39.05395
437.686	41.0014
437.899	43.38134
438.112	44.84381
438.325	41.5223
438.538	43.08885
438.751	48.00959
438.964	52.99487
439.177	48.6926
439.39	48.19457
439.603	48.81543
439.816	51.94254
440.029	49.75617
440.242	50.29925
440.455	56.51963
440.668	57.21171
440.881	58.2937
441.094	55.06965
441.306	56.89331
441.519	61.5101
441.732	62.8431
441.945	63.84394
442.158	58.27709
442.37	58.54505
442.583	63.15094
442.796	61.32592
443.009	58.58398
443.222	54.60224
443.434	58.2524
443.647	56.52417
443.86	56.32759
444.072	53.88846
444.285	55.41629
444.498	54.57348
444.71	53.33785
444.923	50.44465
445.136	45.52431
445.348	45.30074
445.561	47.78271
445.773	47.95021
445.986	51.82042
446.198	52.27695
446.411	55.33846
446.623	50.06159
446.836	49.05363
447.048	41.10421
447.261	39.3746
447.473	36.10635
447.686	40.11141
447.898	39.07198
448.11	54.29293
448.323	56.08503
448.535	52.53396
448.748	39.33731
448.96	32.9215
449.172	39.8906
449.385	44.9997
449.597	46.27208
449.809	40.47754
450.021	38.39437
450.234	46.20057
450.446	51.01581
450.658	48.74711
450.87	46.17504
451.083	42.52819
451.295	47.49584
451.507	48.67577
451.719	52.22854
451.931	50.20791
452.143	53.49945
452.356	56.49368
452.568	65.47132
452.78	65.56507
452.992	68.74943
453.204	57.75688
453.416	57.94449
453.628	56.35926
453.84	65.53451
454.052	71.72367
454.264	77.6998
454.476	79.82044
454.688	80.53309
454.9	80.02043
455.112	71.2282
455.324	64.24153
455.536	65.12072
455.747	71.84983
455.959	77.43143
456.171	80.19498
456.383	76.26118
456.595	76.20052
456.807	72.26856
457.018	77.34913
457.23	74.54511
457.442	74.37194
457.654	67.99293
457.865	61.90599
458.077	59.17907
458.289	64.3887
458.501	73.22413
458.712	80.5534
458.924	77.75956
459.136	77.13167
459.347	66.19079
459.559	64.82596
459.77	58.2584
459.982	62.2202
460.194	58.95957
460.405	60.75108
460.617	57.3769
460.828	57.5137
461.04	50.93071
461.251	54.24928
461.463	53.26757
461.674	56.3885
461.886	44.92692
462.097	42.64931
462.309	45.46343
462.52	55.23909
462.731	56.83597
462.943	49.47906
463.154	44.64723
463.366	48.55906
463.577	45.09945
463.788	48.37203
464	41.49471
464.211	50.64884
464.422	49.50542
464.634	54.39235
464.845	50.97022
465.056	53.92868
465.267	51.65221
465.478	57.19516
465.69	51.29809
465.901	49.18033
466.112	46.99487
466.323	45.82631
466.534	52.52259
466.745	52.12943
466.957	48.64407
467.168	45.07124
467.379	47.38944
467.59	51.94858
467.801	53.21379
468.012	47.2786
468.223	47.50813
468.434	41.35345
468.645	42.74907
468.856	42.13011
469.067	43.63158
469.278	38.9528
469.489	37.35603
469.7	37.51895
469.911	46.01174
470.122	58.15803
470.333	69.33584
470.543	64.19105
470.754	59.60012
470.965	48.74952
471.176	53.3383
471.387	51.51333
471.598	58.70912
471.808	64.06303
472.019	60.903
472.23	56.86414
472.441	53.30574
472.651	56.99004
472.862	61.15137
473.073	60.56641
473.283	58.60874
473.494	49.95523
473.705	52.32566
473.915	54.55968
474.126	60.80278
474.337	55.76393
474.547	53.16985
474.758	56.8856
474.968	56.84838
475.179	58.63183
475.389	59.43466
475.6	58.32184
475.81	66.24223
476.021	67.56201
476.231	70.53204
476.442	64.57486
476.652	61.28176
476.863	58.55151
477.073	55.52139
477.284	56.98543
477.494	65.76439
477.704	68.23857
477.915	60.62104
478.125	62.2883
478.335	61.07918
478.546	69.12046
478.756	57.62161
478.966	64.5273
479.177	64.19925
479.387	71.27052
479.597	72.41092
479.807	75.79876
480.018	67.69086
480.228	63.00547
480.438	60.10554
480.648	69.49791
480.858	71.34043
481.068	70.25384
481.279	69.74185
481.489	73.78977
481.699	75.90999
481.909	82.21862
482.119	88.6388
482.329	97.41128
482.539	102.25461
482.749	97.50941
482.959	105.93395
483.169	116.67836
483.379	134.96264
483.589	139.08376
483.799	143.58043
484.009	146.74788
484.219	153.5365
484.429	164.08255
484.639	172.87633
484.849	183.89287
485.059	179.13828
485.268	179.78672
485.478	174.6539
485.688	182.61726
485.898	186.62715
486.108	196.39634
486.317	203.66349
486.527	218.45295
486.737	233.35135
486.947	246.63651
487.156	260.16201
487.366	260.72464
487.576	274.3918
487.785	274.52786
487.995	285.28876
488.205	285.71677
488.414	283.80237
488.624	290.97987
488.834	289.24503
489.043	296.9696
489.253	296.69914
489.462	295.84974
489.672	295.65381
489.882	290.6402
490.091	297.53778
490.301	296.74697
490.51	304.1543
490.72	300.74681
490.929	299.55951
491.138	288.88583
491.348	288.03577
491.557	279.13606
491.767	277.19986
491.976	265.03885
492.185	257.97374
492.395	252.99016
492.604	257.57984
492.813	261.22477
493.023	253.44078
493.232	242.5758
493.441	235.13189
493.651	234.87442
493.86	232.21882
494.069	231.67365
494.278	229.44929
494.488	218.62242
494.697	208.77667
494.906	195.82342
495.115	189.90622
495.324	187.82159
495.533	183.3257
495.743	181.62334
495.952	175.29233
496.161	170.48905
496.37	166.69295
496.579	159.65831
496.788	154.45804
496.997	148.60288
497.206	140.0185
497.415	137.56791
497.624	128.46435
497.833	117.97014
498.042	108.05328
498.251	96.65725
498.46	98.71259
498.669	94.4933
498.878	99.08984
499.087	96.85758
499.296	97.70275
499.504	93.57046
499.713	92.16134
499.922	92.74831
500.131	90.32661
500.34	87.71383
500.549	86.64015
500.757	89.00097
500.966	90.37681
501.175	87.70403
501.384	91.71997
501.592	90.58843
501.801	96.24335
502.01	93.3566
502.218	99.86314
502.427	97.88894
502.636	99.16793
502.844	97.43868
503.053	98.58136
503.262	99.38748
503.47	104.51775
503.679	101.53844
503.887	100.0373
504.096	102.77683
504.304	105.8543
504.513	104.32718
504.721	97.51184
504.93	98.25585
505.138	101.53188
505.347	102.46179
505.555	97.64405
505.764	91.28263
505.972	85.78639
506.18	87.22542
506.389	88.57745
506.597	88.5825
506.806	90.75058
507.014	97.08475
507.222	101.70171
507.431	96.98943
507.639	89.72911
507.847	84.84092
508.055	89.37254
508.264	94.73283
508.472	97.72198
508.68	99.08807
508.888	95.73743
509.096	97.52276
509.305	98.52388
509.513	106.39992
509.721	102.10295
509.929	97.42666
510.137	93.61301
510.345	97.0469
510.553	99.44755
510.762	96.98386
510.97	99.22208
511.178	98.57053
511.386	101.97367
511.594	93.57887
511.802	87.48844
512.01	81.4577
512.218	85.82131
512.426	91.60072
512.634	98.51617
512.842	99.71776
513.049	99.22066
513.257	97.64146
513.465	93.47395
513.673	93.24531
513.881	96.52955
514.089	99.68683
514.297	103.35382
514.504	103.84338
514.712	96.60411
514.92	90.49062
515.128	81.23193
515.336	91.16428
515.543	94.54505
515.751	103.87382
515.959	105.05354
516.166	109.45705
516.374	109.39249
516.582	105.24722
516.789	106.83457
516.997	109.93735
517.205	114.36865
517.412	112.53584
517.62	108.78443
517.827	109.19481
518.035	109.42396
518.243	117.72365
518.45	122.89135
518.658	130.7108
518.865	137.42114
519.073	141.424
519.28	154.12072
519.488	154.58407
519.695	169.63405
519.902	173.96699
520.11	188.73874
520.317	200.63513
520.525	206.54496
520.732	217.94698
520.939	222.38156
521.147	235.71393
521.354	239.34074
521.561	244.50136
521.769	240.7706
521.976	243.03179
522.183	242.74609
522.391	249.92282
522.598	255.74089
522.805	255.47688
523.012	246.29308
523.219	242.52431
523.427	238.21711
523.634	242.8248
523.841	236.91405
524.048	243.59163
524.255	237.88845
524.462	234.31441
524.669	226.96175
524.877	234.11579
525.084	234.15964
525.291	237.94904
525.498	236.93647
525.705	240.449
525.912	232.49131
526.119	230.29957
526.326	217.64089
526.533	217.97227
526.74	212.36407
526.947	214.07461
527.153	214.70432
527.36	204.66372
527.567	203.0275
527.774	194.94631
527.981	196.73381
528.188	183.97711
528.395	177.02741
528.602	161.75633
528.808	157.31665
529.015	151.33861
529.222	147.27702
529.429	142.24435
529.635	124.49207
529.842	123.16215
530.049	115.78406
530.256	117.58857
530.462	111.784
530.669	102.16258
530.876	96.37221
531.082	86.1306
531.289	86.86151
531.495	92.79255
531.702	91.49303
531.909	91.74539
532.115	81.12515
532.322	79.01474
532.528	78.10361
532.735	78.79849
532.941	81.01234
533.148	80.66462
533.354	81.56551
533.561	84.78811
533.767	82.89672
533.974	82.585
534.18	78.63968
534.387	83.91671
534.593	80.87516
534.799	81.75846
535.006	81.26447
535.212	85.27425
535.418	93.19157
535.625	89.745
535.831	94.65236
536.037	88.29237
536.244	85.97297
536.45	85.84452
536.656	82.63085
536.862	85.15103
537.068	78.28799
537.275	83.90771
537.481	87.99016
537.687	90.63131
537.893	88.52478
538.099	85.21449
538.305	88.49686
538.512	89.05486
538.718	82.21806
538.924	80.71909
539.13	78.6722
539.336	89.1492
539.542	85.46997
539.748	90.70294
539.954	87.474
540.16	90.27755
540.366	86.78158
540.572	87.77642
540.778	84.39246
540.984	84.84256
541.19	82.89044
541.396	84.73562
541.602	80.81099
541.807	84.19096
542.013	88.6224
542.219	90.80191
542.425	88.71285
542.631	88.87499
542.837	89.52093
543.042	89.9254
543.248	85.83063
543.454	89.83484
543.66	86.21758
543.865	86.16056
544.071	83.05117
544.277	85.24002
544.483	84.97062
544.688	83.4395
544.894	77.5789
545.1	76.76824
545.305	77.57116
545.511	79.09183
545.716	78.50482
545.922	75.16011
546.128	80.37113
546.333	81.83712
546.539	84.11892
546.744	80.8576
546.95	82.64063
547.155	84.06723
547.361	79.83008
547.566	75.90195
547.772	68.80676
547.977	68.43192
548.182	66.83145
548.388	72.17491
548.593	77.37233
548.799	81.57675
549.004	78.77673
549.209	80.98613
549.415	73.69396
549.62	79.91895
549.825	76.99271
550.031	90.26864
550.236	84.53661
550.441	83.3822
550.646	75.1831
550.852	73.13621
551.057	78.72356
551.262	77.05408
551.467	76.53184
551.672	59.53835
551.878	55.81152
552.083	54.9005
552.288	62.25474
552.493	65.36692
552.698	67.87079
552.903	69.44449
553.108	63.81012
553.313	64.47202
553.518	65.71035
553.723	70.54508
553.928	71.15309
554.133	66.90985
554.338	65.70293
554.543	65.59665
554.748	71.19054
554.953	76.83214
555.158	83.54212
555.363	81.19896
555.568	75.03266
555.773	66.89421
555.978	62.99333
556.182	61.93037
556.387	63.32681
556.592	68.69862
556.797	69.43218
557.002	65.52453
557.206	70.37736
557.411	77.15855
557.616	88.16266
557.821	86.21056
558.025	84.23891
558.23	81.5765
558.435	82.99224
558.64	86.41381
558.844	80.70161
559.049	79.4129
559.253	78.62988
559.458	84.68096
559.663	90.19449
559.867	94.22212
560.072	98.54075
560.276	103.54262
560.481	106.88603
560.685	114.66624
560.89	123.39414
561.094	134.34314
561.299	136.97496
561.503	142.36474
561.708	144.1383
561.912	151.10421
562.117	154.43864
562.321	164.42273
562.525	173.60617
562.73	174.96916
562.934	173.63013
563.139	175.27143
563.343	180.21479
563.547	183.82619
563.752	183.30299
563.956	183.22755
564.16	184.47718
564.364	181.96326
564.569	181.75929
564.773	180.09863
564.977	181.06343
565.181	185.46185
565.385	183.97866
565.59	180.41436
565.794	174.57775
565.998	167.38868
566.202	167.3231
566.406	170.85396
566.61	166.0088
566.814	161.93446
567.018	157.95262
567.222	165.76444
567.426	171.68832
567.63	167.2937
567.834	165.30715
568.038	159.03898
568.242	158.31693
568.446	157.68273
568.65	158.85276
568.854	154.04077
569.058	153.46922
569.262	147.74109
569.466	146.82693
569.67	137.19498
569.874	136.77066
570.078	131.37292
570.281	130.8613
570.485	123.0271
570.689	121.68576
570.893	121.40351
571.097	123.13204
571.3	124.36694
571.504	114.92987
571.708	110.84558
571.912	103.08028
572.115	103.80456
572.319	102.14884
572.523	98.89465
572.726	102.76072
572.93	93.95712
573.133	91.73556
573.337	86.893
573.541	89.03008
573.744	84.81472
573.948	82.47991
574.151	79.77095
574.355	79.66348
574.558	84.05891
574.762	82.78941
574.965	92.69285
575.169	90.85768
575.372	92.13484
575.576	86.92571
575.779	82.56706
575.983	85.65267
576.186	77.93586
576.389	87.2103
576.593	88.62989
576.796	96.20847
577	89.87278
577.203	90.07793
577.406	87.83755
577.609	91.72994
577.813	94.79261
578.016	98.92372
578.219	89.3085
578.423	88.68136
578.626	86.46776
578.829	90.3326
579.032	86.56258
579.235	84.15339
579.438	87.80132
579.642	79.90332
579.845	81.56041
580.048	75.91864
580.251	85.54031
580.454	84.40932
580.657	88.49471
580.86	84.18802
581.063	84.42487
581.266	85.29594
581.469	83.12623
581.672	86.70316
581.875	79.95552
582.078	83.73435
582.281	83.01444
582.484	92.59928
582.687	92.99299
582.89	89.73904
583.093	94.96778
583.296	100.79023
583.499	100.85859
583.702	92.89098
583.904	95.3755
584.107	105.05862
584.31	104.10503
584.513	99.65903
584.716	93.15646
584.918	99.21609
585.121	99.60295
585.324	104.37987
585.527	93.96319
585.729	94.90698
585.932	90.30025
586.135	99.79655
586.337	105.79825
586.54	104.61467
586.743	102.56189
586.945	90.64872
587.148	92.28009
587.35	88.12291
587.553	96.82257
587.755	96.47657
587.958	103.21251
588.161	101.11771
588.363	99.61672
588.566	97.2596
588.768	95.86717
588.971	95.24531
589.173	91.41673
589.375	89.97139
