Data from H2O_Subt9__4__00044.txt Node

Date: Tue Nov 04 10:20:31 EST 2025
User: brett
Spectrometer: USB4F03499
Trigger mode: 4
Integration Time (sec): 3.000000E-2
Scans to average: 15
Electric dark correction enabled: true
Nonlinearity correction enabled: true
Boxcar width: 1
XAxis mode: Wavelengths
Number of Pixels in Spectrum: 3648
>>>>>Begin Spectral Data<<<<<
345.386	-3.09885
345.605	-3.09885
345.824	-2.57716
346.044	-1.98995
346.263	2.57307
346.482	2.80185
346.701	3.61717
346.92	0.06536
347.139	-1.5319
347.358	-4.04042
347.577	2.08939
347.796	1.665
348.015	5.44494
348.234	0.55391
348.453	-0.1299
348.672	-5.02065
348.891	-10.95332
349.11	-2.47829
349.329	3.06381
349.548	10.26664
349.767	13.20271
349.986	17.01511
350.205	22.55848
350.424	23.92589
350.643	27.34911
350.862	14.14959
351.08	12.25288
351.299	8.11327
351.518	18.44249
351.737	13.68747
351.956	15.02326
352.174	16.5876
352.393	18.93516
352.612	22.3529
352.831	27.76522
353.049	33.69344
353.268	33.1731
353.487	31.73948
353.705	26.007
353.924	26.26806
354.143	24.4731
354.361	31.01921
354.58	27.96012
354.798	34.24178
355.017	36.03425
355.236	41.99419
355.454	37.20738
355.673	35.05473
355.891	34.07613
356.11	37.39913
356.328	40.29974
356.547	42.28545
356.765	40.03927
356.984	41.92779
357.202	41.99391
357.42	40.82027
357.639	37.13695
357.857	42.76154
358.076	47.35298
358.294	54.1986
358.512	52.93453
358.731	52.44486
358.949	47.09656
359.167	43.83472
359.386	45.13985
359.604	43.99434
359.822	48.10611
360.04	49.63188
360.259	51.78435
360.477	48.95015
360.695	46.92903
360.913	50.90831
361.131	51.32847
361.35	49.73066
361.568	47.02594
361.786	44.74163
362.004	51.06676
362.222	49.1775
362.44	51.07529
362.658	47.78009
362.876	51.26068
363.094	53.80009
363.312	55.85809
363.53	57.67781
363.749	53.01902
363.967	48.851
364.184	42.3421
364.402	48.82441
364.62	46.09037
364.838	42.80614
365.056	32.4778
365.274	33.09184
365.492	34.23143
365.71	32.47427
365.928	28.70056
366.146	26.09459
366.364	29.03065
366.581	27.98752
366.799	29.35999
367.017	29.29804
367.235	32.91277
367.453	32.02905
367.67	26.88045
367.888	23.10161
368.106	24.10219
368.323	22.73137
368.541	16.11759
368.759	18.44033
368.977	20.6895
369.194	29.3266
369.412	25.41917
369.629	22.02795
369.847	18.50624
370.065	19.67938
370.282	22.22188
370.5	29.48453
370.717	28.76452
370.935	26.97305
371.152	25.44185
371.37	25.31189
371.588	30.97937
371.805	35.73648
372.022	34.88752
372.24	31.24093
372.457	24.88742
372.675	31.54261
372.892	33.98199
373.11	31.31257
373.327	28.31264
373.544	32.9396
373.762	37.26989
373.979	36.48284
374.196	34.88653
374.414	37.39539
374.631	41.76218
374.848	40.45842
375.066	41.20869
375.283	38.21132
375.5	41.36972
375.717	43.09729
375.935	40.62117
376.152	38.85947
376.369	32.89891
376.586	36.44299
376.803	38.98828
377.02	42.99377
377.238	45.99651
377.455	45.07906
377.672	42.89899
377.889	36.0274
378.106	39.87749
378.323	42.67939
378.54	47.1358
378.757	41.92141
378.974	39.11753
379.191	40.88185
379.408	41.9246
379.625	36.90511
379.842	37.59307
380.059	40.59049
380.276	49.71339
380.493	44.13653
380.71	41.23568
380.927	37.97174
381.143	43.12254
381.36	50.46834
381.577	58.94163
381.794	59.87489
382.011	50.66916
382.228	40.24397
382.444	39.76147
382.661	47.35367
382.878	51.33209
383.095	56.01383
383.311	56.14359
383.528	58.42426
383.745	58.10472
383.962	56.47802
384.178	53.48007
384.395	46.8403
384.612	47.9071
384.828	46.63605
385.045	47.99877
385.261	43.77296
385.478	45.33616
385.695	42.63425
385.911	43.44479
386.128	44.91298
386.344	45.50459
386.561	44.82228
386.777	45.43712
386.994	49.27703
387.21	48.92163
387.427	48.43716
387.643	49.35119
387.86	52.76885
388.076	57.03585
388.292	50.87267
388.509	44.75386
388.725	37.5159
388.942	42.86214
389.158	44.71231
389.374	43.63876
389.591	41.81631
389.807	45.10501
390.023	56.17778
390.239	54.3905
390.456	48.5606
390.672	39.77516
390.888	38.04225
391.104	40.42242
391.321	43.05719
391.537	47.78192
391.753	47.9065
391.969	46.1734
392.185	45.26348
392.401	47.84525
392.618	48.56945
392.834	48.69554
393.05	50.02344
393.266	46.69615
393.482	43.92824
393.698	43.82857
393.914	50.63301
394.13	61.24976
394.346	54.38449
394.562	50.94172
394.778	41.46582
394.994	47.26272
395.21	46.40816
395.426	49.99303
395.642	53.73866
395.858	54.71791
396.073	55.49574
396.289	54.02885
396.505	51.03359
396.721	49.2815
396.937	43.77987
397.153	40.39432
397.369	40.39621
397.584	41.33978
397.8	42.21532
398.016	41.65343
398.232	46.3679
398.447	46.40905
398.663	44.46096
398.879	38.63904
399.094	38.92688
399.31	39.96454
399.526	43.34769
399.741	46.44333
399.957	44.5927
400.173	38.01985
400.388	34.66699
400.604	30.59126
400.82	33.58474
401.035	41.42973
401.251	43.61452
401.466	48.01796
401.682	39.84392
401.897	43.97605
402.113	41.07343
402.328	42.86757
402.544	41.79274
402.759	36.06094
402.974	35.3072
403.19	41.01116
403.405	42.44327
403.621	38.07657
403.836	33.74496
404.051	36.19285
404.267	40.69309
404.482	37.6605
404.697	38.43702
404.913	41.72458
405.128	42.31218
405.343	41.86057
405.559	41.89327
405.774	40.8859
405.989	41.59655
406.204	40.0684
406.42	42.64026
406.635	48.27455
406.85	47.58588
407.065	38.53204
407.28	36.28773
407.495	37.49805
407.71	43.42402
407.926	38.96399
408.141	34.85598
408.356	37.75392
408.571	39.64058
408.786	43.29015
409.001	43.97832
409.216	46.45443
409.431	44.82403
409.646	45.89976
409.861	41.85585
410.076	43.09993
410.291	36.12784
410.506	39.06619
410.721	40.33125
410.936	47.49847
411.15	53.31382
411.365	52.29922
411.58	52.91648
411.795	54.51904
412.01	53.77586
412.225	60.583
412.439	57.68464
412.654	63.90088
412.869	54.06672
413.084	49.60891
413.299	47.26953
413.513	50.81452
413.728	51.16526
413.943	48.75055
414.157	45.23034
414.372	44.28749
414.587	42.72488
414.801	41.13046
415.016	39.63843
415.231	44.59311
415.445	48.33538
415.66	50.51559
415.874	45.59571
416.089	44.52674
416.304	47.03149
416.518	57.94064
416.733	59.76066
416.947	55.49562
417.162	42.17364
417.376	37.48305
417.59	37.29016
417.805	44.1637
418.019	47.09549
418.234	52.99198
418.448	49.34454
418.663	54.7277
418.877	54.01019
419.091	49.84064
419.306	50.35025
419.52	45.46522
419.734	55.61967
419.949	44.81447
420.163	47.48654
420.377	40.58836
420.591	44.7833
420.806	38.13792
421.02	42.46863
421.234	42.63163
421.448	44.00181
421.663	39.02602
421.877	38.93469
422.091	42.48146
422.305	40.45875
422.519	37.03829
422.733	35.93187
422.947	41.66235
423.161	41.62722
423.376	49.69539
423.59	51.94233
423.804	49.33671
424.018	38.72366
424.232	38.71723
424.446	46.95431
424.66	53.99798
424.874	51.59922
425.088	46.8676
425.302	45.42977
425.515	44.41127
425.729	47.97517
425.943	44.65449
426.157	42.6986
426.371	47.53649
426.585	46.65179
426.799	49.29918
427.013	45.14232
427.226	48.14324
427.44	47.71724
427.654	47.25526
427.868	39.17894
428.081	38.81807
428.295	39.60764
428.509	43.25538
428.723	40.58309
428.936	37.52479
429.15	38.23511
429.364	38.20948
429.577	38.208
429.791	38.79743
430.005	39.15428
430.218	42.90178
430.432	43.9123
430.645	39.22081
430.859	29.97038
431.073	28.0175
431.286	34.66772
431.5	39.09563
431.713	42.77552
431.927	39.51753
432.14	36.81543
432.354	29.6861
432.567	26.32985
432.781	28.14989
432.994	30.97844
433.207	37.26616
433.421	38.86385
433.634	40.94811
433.848	40.81268
434.061	39.11707
434.274	38.66393
434.488	40.48231
434.701	46.99299
434.914	48.13143
435.127	46.18257
435.341	41.13915
435.554	41.26712
435.767	44.1043
435.98	44.72213
436.194	45.90086
436.407	48.2118
436.62	53.68572
436.833	51.66513
437.046	48.73734
437.259	41.59785
437.473	46.84271
437.686	49.37466
437.899	52.01502
438.112	46.15235
438.325	46.28039
438.538	51.71916
438.751	56.57938
438.964	57.10657
439.177	52.54409
439.39	55.23153
439.603	55.88504
439.816	54.09843
440.029	56.07432
440.242	52.61517
440.455	63.1292
440.668	58.81315
440.881	60.67548
441.094	57.19197
441.306	61.13044
441.519	67.11419
441.732	68.54398
441.945	68.56838
442.158	66.2542
442.37	71.72753
442.583	78.77331
442.796	80.65516
443.009	70.78935
443.222	63.29448
443.434	61.18865
443.647	61.50953
443.86	58.31985
444.072	59.10177
444.285	57.27883
444.498	61.6088
444.71	56.63186
444.923	56.89523
445.136	49.40469
445.348	51.75275
445.561	52.64123
445.773	57.00667
445.986	59.47641
446.198	63.57761
446.411	61.1718
446.623	55.27704
446.836	49.64819
447.048	47.97986
447.261	43.32115
447.473	45.35405
447.686	44.37988
447.898	49.97938
448.11	59.95948
448.323	61.29597
448.535	56.1834
448.748	42.76324
448.96	40.09034
449.172	40.41969
449.385	41.88412
449.597	44.00306
449.809	47.45225
450.021	45.88942
450.234	49.65962
450.446	50.43803
450.658	53.70366
450.87	54.93669
451.083	54.8688
451.295	57.29544
451.507	54.37719
451.719	56.27111
451.931	52.29883
452.143	62.42147
452.356	63.85339
452.568	73.54675
452.78	70.61531
452.992	69.53842
453.204	65.24652
453.416	62.05144
453.628	67.91533
453.84	72.53556
454.052	80.77297
454.264	83.3319
454.476	80.90044
454.688	78.39453
454.9	79.41053
455.112	74.61843
455.324	72.47824
455.536	72.6096
455.747	77.71254
455.959	81.30822
456.171	85.50094
456.383	86.76832
456.595	83.29428
456.807	79.23427
457.018	76.60994
457.23	74.74889
457.442	72.75403
457.654	74.2112
457.865	74.13854
458.077	72.09551
458.289	69.98891
458.501	74.72843
458.712	80.91904
458.924	84.10923
459.136	79.51426
459.347	66.62223
459.559	62.13545
459.77	58.42917
459.982	61.87093
460.194	59.61874
460.405	60.0112
460.617	59.33703
460.828	59.14906
461.04	54.74595
461.251	58.29156
461.463	62.28621
461.674	63.58565
461.886	50.43305
462.097	42.95135
462.309	44.82091
462.52	50.85339
462.731	48.25117
462.943	48.73918
463.154	46.51169
463.366	50.81434
463.577	43.1224
463.788	51.4719
464	50.35544
464.211	55.24594
464.422	48.56938
464.634	50.39713
464.845	50.91283
465.056	54.45754
465.267	55.14316
465.478	57.52932
465.69	53.51947
465.901	50.29532
466.112	48.30522
466.323	49.41519
466.534	53.54018
466.745	58.41803
466.957	57.34151
467.168	54.90734
467.379	52.18227
467.59	49.38536
467.801	50.03226
468.012	48.58755
468.223	48.58906
468.434	45.10257
468.645	43.27723
468.856	50.0459
469.067	50.57159
469.278	52.98873
469.489	46.64109
469.7	41.7909
469.911	38.59968
470.122	44.79142
470.333	57.01194
470.543	55.12082
470.754	57.55753
470.965	56.33909
471.176	63.43325
471.387	59.20071
471.598	60.96177
471.808	67.90995
472.019	69.59766
472.23	64.90841
472.441	61.83747
472.651	63.60255
472.862	71.3722
473.073	68.96592
473.283	66.6827
473.494	59.95364
473.705	61.4131
473.915	60.49164
474.126	61.0713
474.337	62.01852
474.547	59.16348
474.758	64.40766
474.968	62.5479
475.179	67.42132
475.389	71.89461
475.6	64.99187
475.81	67.41578
476.021	62.17062
476.231	68.36105
476.442	65.16842
476.652	59.95579
476.863	63.04961
477.073	65.517
477.284	67.46934
477.494	66.48903
477.704	66.75112
477.915	67.42912
478.125	70.98229
478.335	70.39057
478.546	67.69617
478.756	55.67671
478.966	56.14292
479.177	60.27174
479.387	68.28638
479.597	70.92311
479.807	73.82313
480.018	68.90383
480.228	66.82032
480.438	65.31872
480.648	74.02463
480.858	77.68684
481.068	76.92469
481.279	75.53603
481.489	79.29194
481.699	79.72198
481.909	93.40217
482.119	96.99427
482.329	107.7155
482.539	107.06911
482.749	110.93121
482.959	121.26977
483.169	128.79867
483.379	139.77386
483.589	145.12595
483.799	152.83394
484.009	161.80641
484.219	168.04143
484.429	176.12124
484.639	180.47076
484.849	183.86981
485.059	182.58038
485.268	186.91938
485.478	184.70273
485.688	184.69767
485.898	184.7233
486.108	197.85844
486.317	218.88014
486.527	232.3416
486.737	248.43361
486.947	252.85111
487.156	263.37182
487.366	262.21935
487.576	276.36982
487.785	279.12229
487.995	288.78318
488.205	282.91531
488.414	289.7804
488.624	298.5397
488.834	302.16467
489.043	297.52596
489.253	294.83417
489.462	301.15047
489.672	306.92676
489.882	305.55954
490.091	303.61312
490.301	305.21139
490.51	305.48775
490.72	301.88627
490.929	302.31162
491.138	301.2591
491.348	297.04974
491.557	290.44641
491.767	285.63591
491.976	280.03299
492.185	268.0299
492.395	260.68946
492.604	257.32848
492.813	257.48366
493.023	249.7009
493.232	246.07656
493.441	234.33091
493.651	231.22724
493.86	225.36929
494.069	231.90829
494.278	236.15102
494.488	230.24391
494.697	221.59675
494.906	212.53648
495.115	206.94377
495.324	203.43833
495.533	190.78309
495.743	189.14905
495.952	183.95358
496.161	178.59984
496.37	168.93744
496.579	162.26256
496.788	158.10021
496.997	153.4436
497.206	145.25067
497.415	137.83479
497.624	132.39961
497.833	115.47846
498.042	111.30767
498.251	104.0368
498.46	105.99457
498.669	100.83429
498.878	102.31366
499.087	106.2232
499.296	106.12617
499.504	95.85315
499.713	92.36386
499.922	94.54264
500.131	96.89723
500.34	96.68755
500.549	96.81586
500.757	97.35805
500.966	91.58591
501.175	88.84815
501.384	90.29779
501.592	97.9416
501.801	97.84702
502.01	96.74659
502.218	101.17153
502.427	103.45247
502.636	104.21144
502.844	99.4934
503.053	100.57119
503.262	100.82512
503.47	103.94121
503.679	100.93025
503.887	101.0861
504.096	102.85122
504.304	102.15876
504.513	100.14433
504.721	86.27855
504.93	86.04813
505.138	87.83016
505.347	94.11987
505.555	91.86883
505.764	90.34881
505.972	88.13461
506.18	87.2658
506.389	82.24885
506.597	84.69181
506.806	88.68076
507.014	99.79116
507.222	100.28027
507.431	97.71213
507.639	89.15221
507.847	91.41215
508.055	96.75606
508.264	104.5523
508.472	106.30584
508.68	111.63433
508.888	107.30967
509.096	103.99544
509.305	99.34457
509.513	100.88506
509.721	92.68856
509.929	89.34469
510.137	86.50585
510.345	98.55023
510.553	99.91085
510.762	102.61305
510.97	101.86194
511.178	101.66522
511.386	105.58693
511.594	103.33303
511.802	97.95749
512.01	94.43141
512.218	98.37184
512.426	102.55928
512.634	104.76186
512.842	100.31086
513.049	105.07672
513.257	109.47546
513.465	106.54282
513.673	99.58861
513.881	96.60249
514.089	97.94007
514.297	100.43834
514.504	99.10821
514.712	91.08921
514.92	94.33104
515.128	92.70612
515.336	102.60606
515.543	104.68636
515.751	106.28553
515.959	108.30982
516.166	110.57042
516.374	115.89507
516.582	111.00268
516.789	108.39994
516.997	107.44467
517.205	111.84351
517.412	113.8423
517.62	116.97275
517.827	121.99293
518.035	127.57726
518.243	129.9368
518.45	137.04941
518.658	138.86267
518.865	151.02029
519.073	154.14286
519.28	161.26199
519.488	159.94053
519.695	169.96535
519.902	180.84432
520.11	191.17662
520.317	200.19265
520.525	203.21964
520.732	213.10128
520.939	225.10663
521.147	237.43627
521.354	245.65551
521.561	249.3583
521.769	254.84306
521.976	255.64942
522.183	259.69493
522.391	259.11118
522.598	261.05186
522.805	252.70634
523.012	247.6936
523.219	244.18195
523.427	245.72586
523.634	250.6252
523.841	251.01758
524.048	250.71234
524.255	245.84979
524.462	242.79334
524.669	240.45238
524.877	241.75362
525.084	239.34176
525.291	238.37831
525.498	235.29593
525.705	236.02693
525.912	228.87721
526.119	224.51688
526.326	216.32364
526.533	220.08562
526.74	216.61217
526.947	213.69439
527.153	209.63122
527.36	204.38106
527.567	205.65885
527.774	196.99393
527.981	194.37798
528.188	185.05824
528.395	181.12048
528.602	169.60941
528.808	165.78824
529.015	161.82169
529.222	153.6093
529.429	140.04554
529.635	124.43843
529.842	123.95056
530.049	119.72078
530.256	114.80409
530.462	109.22598
530.669	105.80865
530.876	104.43667
531.082	97.7687
531.289	96.09839
531.495	99.49521
531.702	100.53531
531.909	95.52253
532.115	81.06676
532.322	80.48508
532.528	80.22395
532.735	86.2498
532.941	81.08559
533.148	81.38792
533.354	79.4284
533.561	85.99873
533.767	86.61042
533.974	92.66963
534.18	88.04181
534.387	87.95479
534.593	77.56697
534.799	80.17283
535.006	85.88683
535.212	92.43195
535.418	90.23957
535.625	87.34659
535.831	92.54621
536.037	95.51533
536.244	90.1729
536.45	86.99019
536.656	86.11787
536.862	89.77637
537.068	87.59291
537.275	84.6972
537.481	83.90417
537.687	85.60288
537.893	86.03084
538.099	87.88774
538.305	90.38988
538.512	97.18803
538.718	98.57315
538.924	98.69877
539.13	96.91323
539.336	100.33688
539.542	99.0296
539.748	95.90845
539.954	98.00457
540.16	93.5287
540.366	88.6684
540.572	83.52746
540.778	84.85671
540.984	96.61808
541.19	96.12905
541.396	93.16422
541.602	82.44549
541.807	81.72939
542.013	89.41049
542.219	91.88244
542.425	92.78292
542.631	90.47552
542.837	92.51835
543.042	93.18424
543.248	89.64126
543.454	88.08923
543.66	85.31738
543.865	86.82067
544.071	85.59503
544.277	84.59816
544.483	87.09119
544.688	86.76304
544.894	85.58622
545.1	82.01313
545.305	86.26051
545.511	84.85292
545.716	82.54282
545.922	83.74879
546.128	86.71632
546.333	90.32799
546.539	84.93976
546.744	83.1737
546.95	83.94921
547.155	88.26823
547.361	83.15341
547.566	79.1924
547.772	70.05018
547.977	71.10744
548.182	72.43279
548.388	77.97124
548.593	79.78603
548.799	80.2519
549.004	78.23235
549.209	80.34444
549.415	77.47446
549.62	80.02509
549.825	75.18022
550.031	78.76851
550.236	76.87369
550.441	82.80902
550.646	81.59852
550.852	79.64978
551.057	75.31806
551.262	71.30813
551.467	73.48511
551.672	67.3548
551.878	66.78185
552.083	60.14611
552.288	63.07568
552.493	64.10652
552.698	66.41552
552.903	68.86789
553.108	66.97188
553.313	77.22867
553.518	76.67775
553.723	81.74166
553.928	78.0229
554.133	76.93416
554.338	72.83256
554.543	66.25548
554.748	67.62211
554.953	73.03601
555.158	78.96618
555.363	79.0938
555.568	75.33404
555.773	71.45473
555.978	70.93634
556.182	73.84346
556.387	76.34494
556.592	75.37525
556.797	71.16297
557.002	65.07717
557.206	79.48599
557.411	85.64939
557.616	95.48342
557.821	92.88269
558.025	91.82056
558.23	91.72621
558.435	82.48056
558.64	87.94904
558.844	82.26894
559.049	85.10815
559.253	83.35037
559.458	92.16195
559.663	97.35001
559.867	99.20036
560.072	99.81559
560.276	104.62249
560.481	112.67274
560.685	122.85497
560.89	129.76608
561.094	133.18477
561.299	133.9654
561.503	142.95487
561.708	148.58885
561.912	154.06281
562.117	156.52147
562.321	164.62484
562.525	172.70672
562.73	171.8011
562.934	175.3533
563.139	179.48965
563.343	187.41403
563.547	185.97249
563.752	185.51404
563.956	186.63666
564.16	185.09927
564.364	182.58528
564.569	176.68013
564.773	177.74157
564.977	178.38234
565.181	186.18216
565.385	186.67571
565.59	187.58385
565.794	183.75645
565.998	179.06327
566.202	182.13971
566.406	180.06526
566.61	174.44294
566.814	166.41657
567.018	172.57534
567.222	180.41901
567.426	180.44461
567.63	174.72618
567.834	171.34603
568.038	172.30942
568.242	164.90819
568.446	165.08514
568.65	158.86093
568.854	159.65926
569.058	161.13143
569.262	158.03019
569.466	153.80843
569.67	141.87488
569.874	139.27657
570.078	131.05559
570.281	130.09017
570.485	123.32668
570.689	124.06336
570.893	125.85896
571.097	129.01582
571.3	129.11447
571.504	118.96469
571.708	112.3474
571.912	105.88124
572.115	104.23501
572.319	107.54935
572.523	103.19069
572.726	102.50898
572.93	86.94816
573.133	82.35491
573.337	75.56042
573.541	85.17155
573.744	88.04065
573.948	90.80826
574.151	87.09154
574.355	83.83103
574.558	88.38907
574.762	82.17947
574.965	87.89095
575.169	84.65877
575.372	91.72201
575.576	89.63256
575.779	90.99228
575.983	92.61424
576.186	86.10019
576.389	84.39216
576.593	81.2954
576.796	88.09349
577	92.12364
577.203	92.23072
577.406	92.16765
577.609	91.18597
577.813	95.12617
578.016	96.30022
578.219	92.86121
578.423	90.15485
578.626	84.30127
578.829	80.85106
579.032	77.73007
579.235	85.26317
579.438	84.22905
579.642	83.06088
579.845	78.2532
580.048	83.17576
580.251	90.38948
580.454	93.12547
580.657	95.22947
580.86	89.88303
581.063	87.39065
581.266	85.95395
581.469	84.49962
581.672	85.50853
581.875	76.77819
582.078	80.91438
582.281	80.06458
582.484	89.06756
582.687	90.50129
582.89	88.93743
583.093	94.2623
583.296	96.70501
583.499	99.43877
583.702	97.05735
583.904	104.35015
584.107	107.37235
584.31	107.23234
584.513	98.7253
584.716	99.30467
584.918	108.28657
585.121	106.20465
585.324	108.67464
585.527	98.35807
585.729	101.15349
585.932	99.4717
586.135	102.82701
586.337	112.82323
586.54	108.19513
586.743	105.16783
586.945	91.98967
587.148	92.02885
587.35	93.23216
587.553	100.24195
587.755	108.73412
587.958	108.90728
588.161	104.34316
588.363	97.41631
588.566	94.37468
