Data from H2O_Subt9__2__00042.txt Node

Date: Tue Nov 04 10:20:30 EST 2025
User: brett
Spectrometer: USB4F03499
Trigger mode: 4
Integration Time (sec): 3.000000E-2
Scans to average: 15
Electric dark correction enabled: true
Nonlinearity correction enabled: true
Boxcar width: 1
XAxis mode: Wavelengths
Number of Pixels in Spectrum: 3648
>>>>>Begin Spectral Data<<<<<
345.386	10.10973
345.605	10.10973
345.824	7.92541
346.044	2.41362
346.263	-7.04189
346.482	-9.61829
346.701	-3.8138
346.92	3.06508
347.139	5.28155
347.358	-1.88829
347.577	1.82921
347.796	2.51398
348.015	9.45504
348.234	8.05177
348.453	0.32538
348.672	-3.74962
348.891	-8.93216
349.11	5.83362
349.329	9.90767
349.548	17.14105
349.767	17.3403
349.986	23.66015
350.205	24.80512
350.424	24.90167
350.643	22.49401
350.862	15.87585
351.08	12.44912
351.299	7.78773
351.518	11.50324
351.737	12.05702
351.956	13.42576
352.174	18.54144
352.393	18.51132
352.612	26.45645
352.831	29.49065
353.049	37.79529
353.268	34.83314
353.487	35.58225
353.705	33.75974
353.924	34.41156
354.143	38.83553
354.361	38.86701
354.58	42.55067
354.798	39.94292
355.017	41.63771
355.236	37.8587
355.454	31.11744
355.673	28.08576
355.891	24.82706
356.11	30.07173
356.328	30.43269
356.547	38.02028
356.765	39.09512
356.984	38.90015
357.202	38.28261
357.42	39.77821
357.639	46.18525
357.857	51.06214
358.076	50.99811
358.294	56.6072
358.512	56.7419
358.731	61.71882
358.949	55.3942
359.167	57.40138
359.386	55.74602
359.604	52.29012
359.822	53.57327
360.04	55.06545
360.259	59.26753
360.477	57.37724
360.695	56.59209
360.913	62.45847
361.131	60.47045
361.35	57.92913
361.568	51.25523
361.786	53.84903
362.004	56.46546
362.222	57.43986
362.44	54.06929
362.658	51.75025
362.876	49.69912
363.094	53.08439
363.312	59.30688
363.53	60.18384
363.749	53.08426
363.967	51.4227
364.184	52.36359
364.402	62.68533
364.62	56.92693
364.838	52.01765
365.056	40.71391
365.274	39.63421
365.492	38.33205
365.71	38.78841
365.928	35.01626
366.146	34.4289
366.364	34.33848
366.581	34.17458
366.799	38.64104
367.017	34.57258
367.235	27.40622
367.453	23.16805
367.67	20.36489
367.888	27.49691
368.106	26.60927
368.323	33.67291
368.541	26.47388
368.759	27.10332
368.977	25.08738
369.194	30.04358
369.412	27.3732
369.629	24.0458
369.847	21.01284
370.065	23.58647
370.282	28.86415
370.5	33.16428
370.717	25.11607
370.935	24.6281
371.152	25.79927
371.37	33.9089
371.588	28.04814
371.805	32.15433
372.022	26.42155
372.24	33.58692
372.457	27.23311
372.675	40.79113
372.892	35.41494
373.11	36.39238
373.327	32.41585
373.544	38.0846
373.762	39.48442
373.979	39.54247
374.196	34.39711
374.414	36.18984
374.631	40.06813
374.848	42.96451
375.066	43.84495
375.283	34.89015
375.5	36.19314
375.717	36.68359
375.935	37.5613
376.152	41.3309
376.369	40.28643
376.586	46.43279
376.803	47.74277
377.02	52.26816
377.238	56.11767
377.455	49.86306
377.672	47.45602
377.889	42.40919
378.106	48.76509
378.323	51.37126
378.54	50.29328
378.757	45.89261
378.974	46.73361
379.191	48.46544
379.408	45.92757
379.625	35.86342
379.842	38.50455
380.059	47.55526
380.276	54.6925
380.493	50.51455
380.71	48.00414
380.927	43.1133
381.143	52.26585
381.36	48.97472
381.577	61.61294
381.794	56.52584
382.011	58.57413
382.228	50.29694
382.444	48.123
382.661	46.79997
382.878	48.04534
383.095	50.09263
383.311	54.19278
383.528	52.76259
383.745	49.83868
383.962	49.05802
384.178	49.60818
384.395	51.07116
384.612	49.11243
384.828	48.36217
385.045	46.76338
385.261	44.00091
385.478	47.32116
385.695	44.16358
385.911	45.16961
386.128	45.01088
386.344	45.66733
386.561	47.00254
386.777	47.71458
386.994	55.7844
387.21	53.60657
387.427	53.96866
387.643	53.12611
387.86	58.65887
388.076	60.35473
388.292	52.40189
388.509	47.78168
388.725	41.03182
388.942	47.25657
389.158	42.59636
389.374	40.96961
389.591	37.84555
389.807	46.73137
390.023	52.37065
390.239	49.37846
390.456	41.30384
390.672	37.8867
390.888	39.92944
391.104	40.48684
391.321	40.68045
391.537	37.75644
391.753	37.97942
391.969	37.80917
392.185	45.68705
392.401	52.40149
392.618	59.66603
392.834	56.01731
393.05	60.88846
393.266	54.14452
393.482	51.08362
393.698	42.10442
393.914	46.95647
394.13	58.51693
394.346	64.08055
394.562	59.56353
394.778	49.59955
394.994	50.15765
395.21	49.43371
395.426	52.56298
395.642	47.39272
395.858	46.48417
396.073	45.43995
396.289	51.55469
396.505	50.57715
396.721	51.81874
396.937	45.50486
397.153	44.95156
397.369	48.7613
397.584	47.32889
397.8	49.08213
398.016	43.37815
398.232	46.69409
398.447	51.32758
398.663	51.69034
398.879	49.05702
399.094	47.64945
399.31	50.18326
399.526	49.72647
399.741	46.11746
399.957	43.97534
400.173	46.19035
400.388	49.41378
400.604	49.40546
400.82	48.42715
401.035	50.18433
401.251	44.91583
401.466	48.73388
401.682	48.43549
401.897	50.35481
402.113	47.54972
402.328	42.90055
402.544	44.95018
402.759	40.97729
402.974	41.68767
403.19	43.5511
403.405	45.60076
403.621	37.06806
403.836	33.94014
404.051	34.4684
404.267	48.08162
404.482	46.83962
404.697	44.42519
404.913	40.32488
405.128	41.59601
405.343	43.29327
405.559	40.13589
405.774	41.11432
405.989	44.75267
406.204	48.07481
406.42	49.99531
406.635	52.83088
406.85	53.11784
407.065	46.76796
407.28	41.7251
407.495	43.97768
407.71	48.82712
407.926	49.51062
408.141	47.38711
408.356	46.31422
408.571	43.51296
408.786	39.83968
409.001	42.7412
409.216	45.96604
409.431	48.98994
409.646	52.27869
409.861	45.46819
410.076	51.04206
410.291	45.17799
410.506	49.74344
410.721	46.45082
410.936	48.3439
411.15	48.98789
411.365	44.32853
411.58	46.57326
411.795	51.36353
412.01	52.7359
412.225	57.16765
412.439	60.38492
412.654	67.47863
412.869	64.18633
413.084	58.94896
413.299	57.1637
413.513	53.45048
413.728	51.29549
413.943	47.31861
414.157	42.78932
414.372	43.01768
414.587	47.2787
414.801	52.7787
415.016	53.5978
415.231	49.96245
415.445	46.2855
415.66	41.43523
415.874	40.68158
416.089	40.4251
416.304	45.3717
416.518	48.79627
416.733	50.16154
416.947	49.80105
417.162	42.92205
417.376	39.85845
417.59	42.9196
417.805	47.71021
418.019	49.1124
418.234	47.55709
418.448	48.04256
418.663	58.47002
418.877	56.4506
419.091	56.41367
419.306	50.74129
419.52	52.23515
419.734	54.87241
419.949	52.59399
420.163	54.35472
420.377	49.40925
420.591	46.28032
420.806	38.33364
421.02	39.21488
421.234	41.59095
421.448	47.45337
421.663	51.65667
421.877	51.63009
422.091	49.12198
422.305	46.38245
422.519	47.97499
422.733	51.81524
422.947	48.88791
423.161	49.89303
423.376	50.57525
423.59	52.59459
423.804	46.86547
424.018	43.31203
424.232	40.47533
424.446	47.27971
424.66	53.21792
424.874	50.52242
425.088	48.06638
425.302	44.22021
425.515	47.50034
425.729	50.48108
425.943	50.54534
426.157	48.81725
426.371	46.04315
426.585	39.91853
426.799	46.76423
427.013	47.87623
427.226	53.18782
427.44	54.12763
427.654	51.22566
427.868	51.51581
428.081	44.12618
428.295	45.46807
428.509	43.02833
428.723	41.85316
428.936	42.47298
429.15	36.67338
429.364	36.77782
429.577	36.09265
429.791	40.19703
430.005	43.06045
430.218	41.24103
430.432	42.47939
430.645	33.94615
430.859	32.83579
431.073	32.67334
431.286	43.2634
431.5	50.35752
431.713	50.48937
431.927	50.84557
432.14	47.36435
432.354	45.44534
432.567	40.03912
432.781	35.80392
432.994	38.727
433.207	46.02179
433.421	48.27048
433.634	49.15044
433.848	39.47641
434.061	43.0197
434.274	38.88901
434.488	39.6027
434.701	36.67681
434.914	38.49894
435.127	43.67738
435.341	39.54351
435.554	37.94653
435.767	41.27198
435.98	44.29909
436.194	48.47235
436.407	45.08716
436.62	48.86879
436.833	52.96628
437.046	55.86515
437.259	50.77608
437.473	45.5082
437.686	44.29727
437.899	49.86591
438.112	50.93723
438.325	49.66628
438.538	47.94663
438.751	57.34752
438.964	66.30099
439.177	65.83856
439.39	59.65593
439.603	57.317
439.816	60.80142
440.029	59.68837
440.242	56.94437
440.455	57.30806
440.668	61.22135
440.881	59.27711
441.094	64.34805
441.306	69.16292
441.519	80.2521
441.732	76.12049
441.945	71.23391
442.158	61.66794
442.37	64.44184
442.583	68.49527
442.796	72.81682
443.009	70.30176
443.222	63.68487
443.434	61.87158
443.647	56.66249
443.86	56.79131
444.072	56.49975
444.285	56.95389
444.498	55.65521
444.71	51.26348
444.923	54.45448
445.136	50.60789
445.348	56.27531
445.561	58.69403
445.773	61.79048
445.986	62.53517
446.198	61.78778
446.411	65.62971
446.623	61.03682
446.836	61.78709
447.048	64.27875
447.261	63.39444
447.473	58.62607
447.686	53.97919
447.898	56.94209
448.11	73.64223
448.323	72.73414
448.535	64.62904
448.748	47.51427
448.96	41.09919
449.172	44.19513
449.385	46.92826
449.597	49.633
449.809	48.23287
450.021	49.59822
450.234	51.70956
450.446	53.78977
450.658	58.09816
450.87	59.72193
451.083	59.45892
451.295	56.58001
451.507	54.9299
451.719	61.01989
451.931	58.83665
452.143	66.52024
452.356	67.75661
452.568	74.71765
452.78	75.00583
452.992	77.53736
453.204	73.70078
453.416	69.98537
453.628	71.10209
453.84	72.47115
454.052	77.52228
454.264	74.13149
454.476	77.13001
454.688	78.33054
454.9	83.01994
455.112	77.64253
455.324	77.74665
455.536	75.0493
455.747	76.6407
455.959	78.34926
456.171	75.97504
456.383	75.6173
456.595	73.86681
456.807	80.27528
457.018	82.7874
457.23	79.00812
457.442	78.73541
457.654	74.99044
457.865	75.37248
458.077	70.69708
458.289	73.46771
458.501	79.02073
458.712	85.95904
458.924	88.49862
459.136	80.39164
459.347	68.50899
459.559	71.76193
459.77	70.23501
459.982	74.39067
460.194	64.62696
460.405	66.87386
460.617	64.08668
460.828	61.10071
461.04	59.52643
461.251	60.17712
461.463	63.16439
461.674	61.14618
461.886	53.91544
462.097	51.31359
462.309	52.72898
462.52	59.02219
462.731	60.74909
462.943	58.27543
463.154	52.98798
463.366	54.88234
463.577	54.73931
463.788	62.53585
464	55.91909
464.211	56.18995
464.422	51.75944
464.634	58.20761
464.845	55.66413
465.056	55.66121
465.267	51.82389
465.478	58.70105
465.69	59.47349
465.901	60.18756
466.112	60.24696
466.323	60.64168
466.534	61.51205
466.745	57.31208
466.957	49.66241
467.168	46.87015
467.379	51.92171
467.59	58.75757
467.801	61.74692
468.012	56.16939
468.223	48.4901
468.434	43.89761
468.645	42.26747
468.856	47.86586
469.067	48.39176
469.278	50.02786
469.489	52.8235
469.7	55.8497
469.911	55.03415
470.122	56.08486
470.333	61.60056
470.543	59.51413
470.754	62.4382
470.965	57.67315
471.176	62.61991
471.387	58.55053
471.598	58.35926
471.808	60.97963
472.019	59.3489
472.23	59.14957
472.441	56.60035
472.651	58.3651
472.862	63.63076
473.073	64.54239
473.283	69.93513
473.494	67.01108
473.705	66.16147
473.915	59.41839
474.126	53.94769
474.337	57.30192
474.547	56.78978
474.758	64.73414
474.968	64.33796
475.179	72.62161
475.389	78.42803
475.6	72.43614
475.81	76.06629
476.021	76.51254
476.231	84.19884
476.442	77.39764
476.652	72.90154
476.863	70.36842
477.073	66.03739
477.284	60.99642
477.494	60.60191
477.704	67.14067
477.915	65.80217
478.125	73.3229
478.335	68.3088
478.546	73.94169
478.756	67.25577
478.966	68.56731
479.177	66.71069
479.387	70.10757
479.597	75.21596
479.807	78.89644
480.018	76.93665
480.228	75.50384
480.438	73.25431
480.648	76.5292
480.858	78.88927
481.068	78.35466
481.279	82.39326
481.489	86.50707
481.699	87.06719
481.909	88.46749
482.119	89.71954
482.329	99.82346
482.539	108.62719
482.749	111.87258
482.959	117.17992
483.169	122.33875
483.379	133.57451
483.589	145.51497
483.799	153.22296
484.009	164.75695
484.219	168.91664
484.429	174.59781
484.639	178.81714
484.849	186.23436
485.059	187.31117
485.268	183.48726
485.478	181.81925
485.688	188.8098
485.898	197.83826
486.108	209.32018
486.317	219.14155
486.527	231.40424
486.737	247.65585
486.947	260.18516
487.156	272.5777
487.366	268.61335
487.576	275.20901
487.785	280.47725
487.995	291.5913
488.205	296.28046
488.414	299.30324
488.624	309.6438
488.834	306.19816
489.043	306.75775
489.253	306.6464
489.462	315.67275
489.672	318.67101
489.882	315.07701
490.091	308.29064
490.301	306.11384
490.51	302.22839
490.72	302.62909
490.929	301.02159
491.138	305.81107
491.348	308.44777
491.557	302.26339
491.767	295.35541
491.976	287.75379
492.185	279.20638
492.395	272.80417
492.604	268.47613
492.813	272.25226
493.023	262.1445
493.232	252.24978
493.441	244.03178
493.651	238.72872
493.86	234.22934
494.069	233.94578
494.278	235.44112
494.488	233.7732
494.697	218.71996
494.906	210.04323
495.115	197.94542
495.324	197.38405
495.533	186.15149
495.743	191.70817
495.952	187.54937
496.161	187.89988
496.37	176.39257
496.579	168.6801
496.788	162.18397
496.997	157.17332
497.206	150.82916
497.415	144.3884
497.624	135.02828
497.833	122.03898
498.042	117.90075
498.251	104.88136
498.46	105.89753
498.669	100.93353
498.878	102.67073
499.087	104.07879
499.296	105.57322
499.504	114.49886
499.713	111.65924
499.922	111.53175
500.131	101.2175
500.34	96.36269
500.549	91.48838
500.757	95.67011
500.966	100.81495
501.175	101.39083
501.384	102.96808
501.592	101.93599
501.801	103.56294
502.01	102.69087
502.218	105.29672
502.427	105.62874
502.636	106.19412
502.844	106.90103
503.053	104.69714
503.262	102.87126
503.47	105.23933
503.679	107.29762
503.887	104.98429
504.096	102.98212
504.304	107.48684
504.513	107.03191
504.721	101.3536
504.93	96.6078
505.138	99.29872
505.347	101.10512
505.555	96.74207
505.764	94.60563
505.972	93.43147
506.18	98.2172
506.389	94.23995
506.597	95.57792
506.806	95.11413
507.014	104.69739
507.222	104.17915
507.431	103.62531
507.639	97.27582
507.847	95.66947
508.055	99.94129
508.264	102.50607
508.472	100.9788
508.68	98.86865
508.888	99.12407
509.096	97.66063
509.305	93.13821
509.513	97.24562
509.721	98.27673
509.929	101.23635
510.137	93.97923
510.345	101.18208
510.553	101.2754
510.762	107.12834
510.97	106.18232
511.178	104.4261
511.386	103.86521
511.594	99.01265
511.802	96.43113
512.01	96.5761
512.218	102.49806
512.426	103.5349
512.634	105.24909
512.842	103.72172
513.049	109.03943
513.257	111.2947
513.465	105.50327
513.673	100.79082
513.881	96.1153
514.089	97.87527
514.297	104.56303
514.504	107.61936
514.712	100.08763
514.92	96.70363
515.128	89.13403
515.336	99.06635
515.543	102.70546
515.751	108.98083
515.959	111.88219
516.166	114.69489
516.374	110.9283
516.582	109.89979
516.789	107.8168
516.997	115.66063
517.205	118.56587
517.412	118.84353
517.62	114.50764
517.827	116.92884
518.035	120.01465
518.243	125.4575
518.45	129.42294
518.658	136.23278
518.865	145.86465
519.073	148.4699
519.28	157.1119
519.488	164.25079
519.695	178.22957
519.902	182.3034
520.11	191.40258
520.317	203.1022
520.525	209.30365
520.732	219.28157
520.939	220.64226
521.147	236.36761
521.354	242.61299
521.561	254.27279
521.769	257.00858
521.976	256.65139
522.183	254.71761
522.391	256.07294
522.598	260.88962
522.805	261.88611
523.012	256.84124
523.219	258.40397
523.427	253.644
523.634	256.99207
523.841	250.75921
524.048	255.17394
524.255	256.871
524.462	249.90321
524.669	245.26644
524.877	242.62714
525.084	248.03984
525.291	249.30706
525.498	241.85938
525.705	242.71871
525.912	233.14517
526.119	234.02596
526.326	219.55845
526.533	218.04491
526.74	213.86051
526.947	217.60916
527.153	220.47221
527.36	212.50372
527.567	215.62908
527.774	204.31045
527.981	199.75155
528.188	186.0629
528.395	180.63438
528.602	170.41934
528.808	166.33983
529.015	158.80374
529.222	151.88834
529.429	139.85227
529.635	132.6477
529.842	128.36387
530.049	120.14191
530.256	119.12512
530.462	114.32494
530.669	109.02394
530.876	100.63702
531.082	97.86687
531.289	98.17726
531.495	101.70407
531.702	97.44866
531.909	92.66329
532.115	83.14797
532.322	85.29547
532.528	85.26186
532.735	87.77754
532.941	83.78358
533.148	85.09374
533.354	87.4225
533.561	94.08981
533.767	93.85619
533.974	95.33423
534.18	91.19381
534.387	91.26942
534.593	85.17161
534.799	86.80268
535.006	89.29948
535.212	93.2445
535.418	94.04397
535.625	97.03245
535.831	98.20273
536.037	95.38564
536.244	89.45868
536.45	87.38059
536.656	89.98503
536.862	92.50648
537.068	90.68049
537.275	90.35205
537.481	88.84365
537.687	91.38741
537.893	91.23103
538.099	92.50295
538.305	93.54261
538.512	95.07589
538.718	92.14007
538.924	93.33778
539.13	94.93174
539.336	100.75969
539.542	98.12046
539.748	97.69713
539.954	96.93674
540.16	98.1159
540.366	88.77037
540.572	88.79259
540.778	90.54271
540.984	104.44877
541.19	104.64222
541.396	96.83635
541.602	85.11055
541.807	86.37675
542.013	93.83011
542.219	96.5294
542.425	92.58797
542.631	91.74292
542.837	92.64844
543.042	97.7339
543.248	94.3867
543.454	96.18158
543.66	94.96936
543.865	95.59527
544.071	99.40804
544.277	104.22982
544.483	106.20214
544.688	98.30131
544.894	91.59989
545.1	87.63714
545.305	85.64485
545.511	85.21114
545.716	90.70099
545.922	94.60459
546.128	91.33181
546.333	83.95757
546.539	82.98912
546.744	79.56525
546.95	83.23406
547.155	82.54764
547.361	83.54338
547.566	80.49294
547.772	76.71381
547.977	76.86288
548.182	77.96022
548.388	78.36148
548.593	76.69671
548.799	81.22605
549.004	81.45012
549.209	82.6522
549.415	74.54861
549.62	80.61096
549.825	84.34788
550.031	91.54485
550.236	84.77221
550.441	85.47445
550.646	79.0946
550.852	79.32472
551.057	79.61027
551.262	78.59137
551.467	77.97151
551.672	65.17527
551.878	62.78148
552.083	61.83808
552.288	64.08477
552.493	66.57897
552.698	68.85471
552.903	70.36324
553.108	71.0666
553.313	73.811
553.518	74.56131
553.723	80.27723
553.928	79.09531
554.133	78.88489
554.338	74.84941
554.543	75.88023
554.748	78.77476
554.953	83.73353
555.158	82.02286
555.363	85.91987
555.568	78.06227
555.773	74.31301
555.978	65.53828
556.182	73.42036
556.387	75.59744
556.592	77.65189
556.797	69.08245
557.002	63.22339
557.206	69.50714
557.411	80.5468
557.616	92.33233
557.821	96.49163
558.025	90.45562
558.23	91.01141
558.435	87.32306
558.64	90.0297
558.844	84.08954
559.049	84.6543
559.253	85.98323
559.458	90.89669
559.663	97.86874
559.867	105.66124
560.072	112.80465
560.276	116.50621
560.481	118.41909
560.685	125.45193
560.89	128.37081
561.094	134.54743
561.299	137.24193
561.503	144.09223
561.708	146.44924
561.912	157.72604
562.117	164.26957
562.321	172.79443
562.525	175.49382
562.73	179.77229
562.934	180.92774
563.139	181.75908
563.343	182.06933
563.547	179.0066
563.752	180.84804
563.956	182.61892
564.16	188.8907
564.364	188.44915
564.569	188.69828
564.773	187.13484
564.977	182.39963
565.181	189.19396
565.385	192.57088
565.59	196.32918
565.794	185.24636
565.998	178.35032
566.202	178.21992
566.406	183.46774
566.61	179.88745
566.814	178.0482
567.018	178.99133
567.222	184.3395
567.426	177.2677
567.63	168.7279
567.834	165.15356
568.038	164.88315
568.242	167.01366
568.446	168.48759
568.65	171.50486
568.854	165.23507
569.058	162.52488
569.262	155.46872
569.466	152.38175
569.67	144.30801
569.874	140.99584
570.078	138.78055
570.281	135.57676
570.485	132.41608
570.689	124.48445
570.893	121.37812
571.097	123.49616
571.3	128.3023
571.504	125.71679
571.708	118.2568
571.912	114.35693
572.115	111.41279
572.319	106.44255
572.523	100.68853
572.726	92.46763
572.93	83.98946
573.133	81.0529
573.337	84.04118
573.541	99.82396
573.744	96.22779
573.948	99.77479
574.151	87.35174
574.355	91.88789
574.558	89.06834
574.762	91.30847
574.965	94.35769
575.169	95.02558
575.372	94.97127
575.576	90.70465
575.779	87.74316
575.983	94.20584
576.186	87.36696
576.389	89.68798
576.593	85.38939
576.796	91.76479
577	97.02919
577.203	94.7649
577.406	94.66937
577.609	91.77083
577.813	93.98862
578.016	96.03986
578.219	93.86851
578.423	94.70406
578.626	88.55854
578.829	86.37632
579.032	81.95589
579.235	87.47458
579.438	91.64252
579.642	92.55479
579.845	85.30919
580.048	84.73532
580.251	90.06311
580.454	93.41678
580.657	93.27954
580.86	92.05713
581.063	97.62435
581.266	96.25266
581.469	93.04638
581.672	94.86717
581.875	88.93207
582.078	90.76137
582.281	87.18203
582.484	99.52658
582.687	98.29571
582.89	94.48956
583.093	97.38095
583.296	104.27487
583.499	109.21802
583.702	103.58755
583.904	104.74038
584.107	110.87919
584.31	107.91342
584.513	106.09774
584.716	100.60333
584.918	111.1124
585.121	108.54372
585.324	112.24766
585.527	100.66373
585.729	98.22932
585.932	92.74674
586.135	99.51281
586.337	110.93873
586.54	115.79518
586.743	111.92351
586.945	103.19553
587.148	102.0672
587.35	100.5417
587.553	109.07794
587.755	109.0912
587.958	113.16291
588.161	105.64312
588.363	99.2351
